Data from dark_USB4E013581_00011.txt Node
Date: Wed May 08 15:05:46 EDT 2019
User: dh1006
Spectrometer: USB4E01358
Autoset integration time: false
Trigger mode: 4
Integration Time (sec): 2.925000E-2
Scans to average: 1
Electric dark correction enabled: true
Nonlinearity correction enabled: false
Boxcar width: 0
Stray light correction enabled: false
XAxis mode: Wavelengths
Stop averaging: false
Number of Pixels in Spectrum: 3648
>>>>>Begin Spectral Data<<<<<
176.727	-36.71
176.966	-36.71
177.205	-36.71
177.444	-38.75
177.683	-28.51
177.922	43.16
178.161	12.45
178.4	43.16
178.638	14.49
178.877	59.55
179.116	10.4
179.355	-36.71
179.593	30.88
179.832	43.16
180.071	84.12
180.309	65.69
180.548	73.88
180.786	49.31
181.025	59.55
181.263	39.07
181.502	94.36
181.74	34.97
181.979	-14.18
182.217	86.17
182.456	37.02
182.694	12.45
182.932	92.32
183.17	67.74
183.409	53.4
183.647	-5.99
183.885	43.16
184.123	80.03
184.361	92.32
184.6	32.93
184.838	0.16
185.076	28.83
185.314	59.55
185.552	-14.18
185.79	67.74
186.028	-1.89
186.266	71.84
186.503	-20.32
186.741	16.54
186.979	67.74
187.217	86.17
187.455	123.04
187.693	53.4
187.93	37.02
188.168	51.36
188.406	43.16
188.643	2.21
188.881	67.74
189.119	61.6
189.356	10.4
189.594	96.41
189.831	-42.85
190.069	43.16
190.306	59.55
190.543	53.4
190.781	30.88
191.018	-14.18
191.256	104.6
191.493	41.12
191.73	10.4
191.967	86.17
192.205	65.69
192.442	43.16
192.679	120.99
192.916	6.3
193.153	120.99
193.39	47.26
193.628	47.26
193.865	-20.32
194.102	20.64
194.339	61.6
194.576	6.3
194.813	43.16
195.049	94.36
195.286	2.21
195.523	51.36
195.76	26.78
195.997	43.16
196.234	118.94
196.47	100.51
196.707	12.45
196.944	32.93
197.18	88.22
197.417	26.78
197.654	41.12
197.89	47.26
198.127	92.32
198.363	30.88
198.6	22.69
198.836	94.36
199.073	-22.37
199.309	26.78
199.546	100.51
199.782	37.02
200.018	51.36
200.255	45.21
200.491	100.51
200.727	-5.99
200.963	75.93
201.199	2.21
201.436	24.73
201.672	10.4
201.908	28.83
202.144	86.17
202.38	49.31
202.616	43.16
202.852	55.45
203.088	84.12
203.324	108.7
203.56	34.97
203.796	71.84
204.032	92.32
204.268	77.98
204.503	94.36
204.739	51.36
204.975	26.78
205.211	20.64
205.446	51.36
205.682	67.74
205.918	61.6
206.153	61.6
206.389	14.49
206.625	22.69
206.86	47.26
207.096	53.4
207.331	-26.47
207.567	4.25
207.802	57.5
208.037	2.21
208.273	37.02
208.508	45.21
208.744	12.45
208.979	45.21
209.214	18.59
209.449	116.89
209.685	102.56
209.92	84.12
210.155	26.78
210.39	55.45
210.625	2.21
210.86	55.45
211.095	22.69
211.33	-36.71
211.565	51.36
211.8	43.16
212.035	63.64
212.27	59.55
212.505	10.4
212.74	43.16
212.975	43.16
213.21	137.37
213.444	28.83
213.679	51.36
213.914	22.69
214.149	41.12
214.383	14.49
214.618	108.7
214.853	102.56
215.087	82.08
215.322	-5.99
215.556	63.64
215.791	-14.18
216.025	67.74
216.26	28.83
216.494	43.16
216.729	75.93
216.963	18.59
217.197	41.12
217.432	55.45
217.666	67.74
217.9	86.17
218.135	-22.37
218.369	39.07
218.603	18.59
218.837	30.88
219.071	24.73
219.306	26.78
219.54	2.21
219.774	67.74
220.008	37.02
220.242	96.41
220.476	-3.94
220.71	63.64
220.944	71.84
221.178	69.79
221.411	6.3
221.645	6.3
221.879	43.16
222.113	86.17
222.347	49.31
222.58	26.78
222.814	47.26
223.048	104.6
223.281	84.12
223.515	96.41
223.749	20.64
223.982	63.64
224.216	24.73
224.449	-12.13
224.683	96.41
224.916	84.12
225.15	30.88
225.383	96.41
225.617	-28.51
225.85	28.83
226.083	77.98
226.317	30.88
226.55	53.4
226.783	10.4
227.016	-24.42
227.25	49.31
227.483	53.4
227.716	30.88
227.949	53.4
228.182	96.41
228.415	80.03
228.648	61.6
228.881	43.16
229.114	0.16
229.347	96.41
229.58	-20.32
229.813	28.83
230.046	84.12
230.279	84.12
230.512	-28.51
230.745	75.93
230.977	53.4
231.21	2.21
231.443	22.69
231.675	18.59
231.908	16.54
232.141	108.7
232.373	129.18
232.606	63.64
232.839	18.59
233.071	67.74
233.304	100.51
233.536	4.25
233.769	100.51
234.001	37.02
234.233	75.93
234.466	47.26
234.698	-5.99
234.93	84.12
235.163	30.88
235.395	67.74
235.627	43.16
235.86	39.07
236.092	86.17
236.324	-5.99
236.556	170.14
236.788	41.12
237.02	51.36
237.252	61.6
237.484	75.93
237.716	39.07
237.948	43.16
238.18	84.12
238.412	30.88
238.644	-1.89
238.876	94.36
239.108	96.41
239.34	41.12
239.571	39.07
239.803	34.97
240.035	84.12
240.267	61.6
240.498	34.97
240.73	55.45
240.962	67.74
241.193	-10.08
241.425	51.36
241.656	47.26
241.888	22.69
242.119	-12.13
242.351	69.79
242.582	141.47
242.814	32.93
243.045	-24.42
243.277	28.83
243.508	28.83
243.739	-8.03
243.971	127.13
244.202	73.88
244.433	43.16
244.664	8.35
244.896	22.69
245.127	10.4
245.358	94.36
245.589	92.32
245.82	71.84
246.051	94.36
246.282	49.31
246.513	47.26
246.744	43.16
246.975	-8.03
247.206	61.6
247.437	45.21
247.668	71.84
247.899	-53.09
248.129	131.23
248.36	55.45
248.591	90.27
248.822	22.69
249.052	18.59
249.283	45.21
249.514	61.6
249.744	63.64
249.975	18.59
250.206	47.26
250.436	45.21
250.667	34.97
250.897	94.36
251.128	45.21
251.358	39.07
251.589	34.97
251.819	80.03
252.049	129.18
252.28	32.93
252.51	20.64
252.74	10.4
252.971	47.26
253.201	14.49
253.431	10.4
253.661	-12.13
253.891	-22.37
254.121	73.88
254.352	67.74
254.582	18.59
254.812	22.69
255.042	2.21
255.272	22.69
255.502	53.4
255.732	102.56
255.962	51.36
256.192	61.6
256.421	22.69
256.651	37.02
256.881	2.21
257.111	73.88
257.341	34.97
257.57	18.59
257.8	2.21
258.03	30.88
258.259	10.4
258.489	-1.89
258.719	18.59
258.948	67.74
259.178	102.56
259.407	10.4
259.637	37.02
259.866	75.93
260.096	12.45
260.325	22.69
260.555	55.45
260.784	47.26
261.013	22.69
261.243	51.36
261.472	110.75
261.701	94.36
261.931	125.08
262.16	12.45
262.389	10.4
262.618	80.03
262.847	96.41
263.076	45.21
263.305	114.84
263.535	10.4
263.764	-10.08
263.993	34.97
264.222	12.45
264.451	96.41
264.679	12.45
264.908	73.88
265.137	39.07
265.366	63.64
265.595	73.88
265.824	12.45
266.053	-14.18
266.281	96.41
266.51	61.6
266.739	90.27
266.967	4.25
267.196	75.93
267.425	53.4
267.653	26.78
267.882	92.32
268.11	37.02
268.339	14.49
268.567	-1.89
268.796	-44.9
269.024	39.07
269.253	57.5
269.481	-38.75
269.709	67.74
269.938	32.93
270.166	-57.19
270.394	43.16
270.623	-12.13
270.851	30.88
271.079	94.36
271.307	116.89
271.535	75.93
271.764	8.35
271.992	84.12
272.22	16.54
272.448	-16.23
272.676	-34.66
272.904	47.26
273.132	-20.32
273.36	2.21
273.588	59.55
273.816	10.4
274.043	24.73
274.271	6.3
274.499	10.4
274.727	90.27
274.955	2.21
275.182	67.74
275.41	116.89
275.638	77.98
275.866	45.21
276.093	88.22
276.321	-3.94
276.548	14.49
276.776	47.26
277.003	106.65
277.231	18.59
277.458	12.45
277.686	20.64
277.913	92.32
278.141	75.93
278.368	2.21
278.595	43.16
278.823	43.16
279.05	133.28
279.277	12.45
279.505	-12.13
279.732	22.69
279.959	16.54
280.186	47.26
280.413	10.4
280.641	96.41
280.868	59.55
281.095	43.16
281.322	30.88
281.549	2.21
281.776	100.51
282.003	-5.99
282.23	86.17
282.457	67.74
282.683	-16.23
282.91	-34.66
283.137	16.54
283.364	96.41
283.591	51.36
283.818	34.97
284.044	43.16
284.271	75.93
284.498	49.31
284.724	86.17
284.951	61.6
285.178	34.97
285.404	39.07
285.631	14.49
285.857	55.45
286.084	43.16
286.31	65.69
286.537	45.21
286.763	10.4
286.99	22.69
287.216	8.35
287.442	-1.89
287.669	84.12
287.895	51.36
288.121	75.93
288.347	10.4
288.574	12.45
288.8	75.93
289.026	16.54
289.252	34.97
289.478	67.74
289.704	43.16
289.931	28.83
290.157	-18.27
290.383	47.26
290.609	10.4
290.835	37.02
291.06	24.73
291.286	49.31
291.512	-14.18
291.738	92.32
291.964	100.51
292.19	34.97
292.416	43.16
292.641	-12.13
292.867	20.64
293.093	34.97
293.319	37.02
293.544	-30.56
293.77	63.64
293.995	67.74
294.221	14.49
294.447	6.3
294.672	10.4
294.898	-14.18
295.123	73.88
295.349	-36.71
295.574	-10.08
295.799	30.88
296.025	43.16
296.25	45.21
296.476	28.83
296.701	112.8
296.926	43.16
297.151	14.49
297.377	45.21
297.602	30.88
297.827	2.21
298.052	49.31
298.277	59.55
298.502	55.45
298.727	37.02
298.953	28.83
299.178	104.6
299.403	6.3
299.628	18.59
299.852	43.16
300.077	67.74
300.302	6.3
300.527	18.59
300.752	84.12
300.977	69.79
301.202	84.12
301.426	22.69
301.651	43.16
301.876	-34.66
302.101	141.47
302.325	102.56
302.55	104.6
302.775	104.6
302.999	41.12
303.224	55.45
303.448	14.49
303.673	-14.18
303.897	45.21
304.122	18.59
304.346	51.36
304.571	12.45
304.795	71.84
305.019	61.6
305.244	30.88
305.468	94.36
305.692	39.07
305.917	73.88
306.141	53.4
306.365	84.12
306.589	43.16
306.813	8.35
307.038	59.55
307.262	37.02
307.486	88.22
307.71	12.45
307.934	26.78
308.158	51.36
308.382	-5.99
308.606	-3.94
308.83	51.36
309.054	39.07
309.278	80.03
309.502	34.97
309.725	12.45
309.949	59.55
310.173	108.7
310.397	51.36
310.62	59.55
310.844	-10.08
311.068	100.51
311.292	26.78
311.515	49.31
311.739	14.49
311.962	51.36
312.186	51.36
312.41	12.45
312.633	14.49
312.857	4.25
313.08	4.25
313.303	26.78
313.527	92.32
313.75	71.84
313.974	47.26
314.197	37.02
314.42	75.93
314.644	51.36
314.867	84.12
315.09	-22.37
315.313	-22.37
315.536	34.97
315.76	10.4
315.983	45.21
316.206	82.08
316.429	14.49
316.652	34.97
316.875	10.4
317.098	71.84
317.321	20.64
317.544	84.12
317.767	53.4
317.99	12.45
318.213	26.78
318.436	-5.99
318.658	32.93
318.881	30.88
319.104	53.4
319.327	59.55
319.55	55.45
319.772	51.36
319.995	80.03
320.218	84.12
320.44	53.4
320.663	110.75
320.885	112.8
321.108	-3.94
321.331	16.54
321.553	55.45
321.776	-16.23
321.998	18.59
322.22	26.78
322.443	14.49
322.665	94.36
322.888	20.64
323.11	6.3
323.332	37.02
323.555	12.45
323.777	141.47
323.999	34.97
324.221	84.12
324.443	39.07
324.666	10.4
324.888	18.59
325.11	114.84
325.332	149.66
325.554	47.26
325.776	-22.37
325.998	63.64
326.22	6.3
326.442	55.45
326.664	18.59
326.886	34.97
327.108	6.3
327.33	39.07
327.551	-14.18
327.773	18.59
327.995	-44.9
328.217	10.4
328.439	100.51
328.66	14.49
328.882	-26.47
329.104	51.36
329.325	51.36
329.547	49.31
329.769	14.49
329.99	45.21
330.212	28.83
330.433	43.16
330.655	-30.56
330.876	22.69
331.098	34.97
331.319	8.35
331.54	-46.95
331.762	94.36
331.983	14.49
332.204	63.64
332.426	-18.27
332.647	75.93
332.868	116.89
333.089	75.93
333.311	16.54
333.532	30.88
333.753	43.16
333.974	43.16
334.195	63.64
334.416	45.21
334.637	80.03
334.858	41.12
335.079	2.21
335.3	47.26
335.521	10.4
335.742	61.6
335.963	84.12
336.184	-12.13
336.405	63.64
336.626	90.27
336.846	30.88
337.067	67.74
337.288	14.49
337.509	43.16
337.729	67.74
337.95	-5.99
338.171	-3.94
338.391	-20.32
338.612	24.73
338.833	67.74
339.053	37.02
339.274	61.6
339.494	26.78
339.715	26.78
339.935	92.32
340.156	28.83
340.376	129.18
340.596	51.36
340.817	59.55
341.037	55.45
341.257	77.98
341.478	90.27
341.698	-1.89
341.918	43.16
342.138	-40.8
342.359	14.49
342.579	30.88
342.799	43.16
343.019	18.59
343.239	20.64
343.459	-14.18
343.679	18.59
343.899	16.54
344.119	69.79
344.339	24.73
344.559	43.16
344.779	100.51
344.999	59.55
345.219	47.26
345.439	61.6
345.658	49.31
345.878	59.55
346.098	55.45
346.318	34.97
346.537	51.36
346.757	84.12
346.977	22.69
347.196	75.93
347.416	45.21
347.636	-38.75
347.855	18.59
348.075	22.69
348.294	141.47
348.514	51.36
348.733	106.65
348.953	71.84
349.172	-67.43
349.392	108.7
349.611	43.16
349.83	34.97
350.05	59.55
350.269	26.78
350.488	-5.99
350.707	118.94
350.927	41.12
351.146	90.27
351.365	2.21
351.584	59.55
351.803	26.78
352.023	59.55
352.242	51.36
352.461	18.59
352.68	-20.32
352.899	24.73
353.118	65.69
353.337	43.16
353.556	-22.37
353.775	55.45
353.993	53.4
354.212	43.16
354.431	4.25
354.65	53.4
354.869	-5.99
355.088	22.69
355.306	-44.9
355.525	82.08
355.744	92.32
355.962	71.84
356.181	20.64
356.4	28.83
356.618	-1.89
356.837	63.64
357.055	67.74
357.274	-34.66
357.492	18.59
357.711	67.74
357.929	-22.37
358.148	34.97
358.366	86.17
358.585	59.55
358.803	96.41
359.021	22.69
359.24	80.03
359.458	53.4
359.676	82.08
359.894	12.45
360.113	14.49
360.331	-3.94
360.549	45.21
360.767	86.17
360.985	-44.9
361.203	-5.99
361.421	18.59
361.639	-20.32
361.857	63.64
362.075	108.7
362.293	-10.08
362.511	110.75
362.729	12.45
362.947	14.49
363.165	2.21
363.383	84.12
363.601	118.94
363.819	63.64
364.036	127.13
364.254	14.49
364.472	69.79
364.689	34.97
364.907	18.59
365.125	-5.99
365.342	4.25
365.56	6.3
365.778	39.07
365.995	2.21
366.213	28.83
366.43	34.97
366.648	-55.14
366.865	34.97
367.083	47.26
367.3	28.83
367.517	86.17
367.735	43.16
367.952	61.6
368.17	84.12
368.387	4.25
368.604	67.74
368.821	18.59
369.039	22.69
369.256	67.74
369.473	45.21
369.69	84.12
369.907	51.36
370.124	63.64
370.341	-14.18
370.558	32.93
370.776	69.79
370.993	43.16
371.21	98.46
371.426	77.98
371.643	-5.99
371.86	12.45
372.077	37.02
372.294	34.97
372.511	-30.56
372.728	41.12
372.945	26.78
373.161	6.3
373.378	45.21
373.595	39.07
373.811	75.93
374.028	20.64
374.245	-5.99
374.461	-14.18
374.678	55.45
374.895	75.93
375.111	37.02
375.328	-5.99
375.544	59.55
375.761	-42.85
375.977	16.54
376.194	-18.27
376.41	125.08
376.626	10.4
376.843	43.16
377.059	6.3
377.275	80.03
377.492	55.45
377.708	86.17
377.924	24.73
378.14	59.55
378.357	59.55
378.573	108.7
378.789	34.97
379.005	37.02
379.221	43.16
379.437	63.64
379.653	67.74
379.869	88.22
380.085	26.78
380.301	53.4
380.517	104.6
380.733	67.74
380.949	43.16
381.165	12.45
381.381	34.97
381.597	84.12
381.813	43.16
382.028	84.12
382.244	63.64
382.46	45.21
382.676	92.32
382.891	82.08
383.107	45.21
383.323	120.99
383.538	-34.66
383.754	100.51
383.969	-20.32
384.185	30.88
384.4	51.36
384.616	108.7
384.831	53.4
385.047	43.16
385.262	-24.42
385.478	80.03
385.693	28.83
385.909	53.4
386.124	16.54
386.339	30.88
386.554	34.97
386.77	-1.89
386.985	-5.99
387.2	61.6
387.415	59.55
387.631	47.26
387.846	2.21
388.061	34.97
388.276	88.22
388.491	2.21
388.706	34.97
388.921	10.4
389.136	47.26
389.351	10.4
389.566	2.21
389.781	55.45
389.996	-12.13
390.211	77.98
390.426	-5.99
390.641	108.7
390.855	10.4
391.07	137.37
391.285	71.84
391.5	92.32
391.714	26.78
391.929	53.4
392.144	26.78
392.358	6.3
392.573	30.88
392.788	43.16
393.002	26.78
393.217	14.49
393.431	34.97
393.646	-18.27
393.86	26.78
394.075	84.12
394.289	34.97
394.504	-20.32
394.718	73.88
394.933	28.83
395.147	63.64
395.361	39.07
395.576	69.79
395.79	-5.99
396.004	2.21
396.218	182.43
396.432	12.45
396.647	41.12
396.861	32.93
397.075	39.07
397.289	6.3
397.503	16.54
397.717	-1.89
397.931	26.78
398.145	-5.99
398.359	-5.99
398.573	-22.37
398.787	-14.18
399.001	49.31
399.215	141.47
399.429	-42.85
399.643	-22.37
399.857	51.36
400.07	45.21
400.284	47.26
400.498	47.26
400.712	8.35
400.925	18.59
401.139	37.02
401.353	63.64
401.566	96.41
401.78	45.21
401.994	67.74
402.207	100.51
402.421	59.55
402.634	55.45
402.848	26.78
403.061	59.55
403.275	16.54
403.488	69.79
403.702	30.88
403.915	55.45
404.128	39.07
404.342	51.36
404.555	-12.13
404.768	63.64
404.982	-14.18
405.195	-10.08
405.408	14.49
405.621	69.79
405.835	65.69
406.048	92.32
406.261	51.36
406.474	43.16
406.687	-26.47
406.9	55.45
407.113	59.55
407.326	8.35
407.539	34.97
407.752	55.45
407.965	-14.18
408.178	2.21
408.391	123.04
408.604	82.08
408.817	45.21
409.029	26.78
409.242	47.26
409.455	-5.99
409.668	18.59
409.881	10.4
410.093	-3.94
410.306	45.21
410.519	-22.37
410.731	55.45
410.944	12.45
411.157	84.12
411.369	92.32
411.582	82.08
411.794	63.64
412.007	37.02
412.219	6.3
412.432	92.32
412.644	-26.47
412.857	53.4
413.069	-14.18
413.281	37.02
413.494	84.12
413.706	94.36
413.918	22.69
414.131	71.84
414.343	-5.99
414.555	-38.75
414.767	61.6
414.979	51.36
415.192	82.08
415.404	102.56
415.616	77.98
415.828	22.69
416.04	45.21
416.252	73.88
416.464	-14.18
416.676	-22.37
416.888	18.59
417.1	45.21
417.312	84.12
417.524	88.22
417.736	116.89
417.948	75.93
418.159	47.26
418.371	63.64
418.583	26.78
418.795	-22.37
419.007	34.97
419.218	61.6
419.43	-22.37
419.642	-12.13
419.853	67.74
420.065	10.4
420.276	-85.86
420.488	37.02
420.7	43.16
420.911	92.32
421.123	-12.13
421.334	53.4
421.546	-38.75
421.757	2.21
421.969	20.64
422.18	59.55
422.391	57.5
422.603	-12.13
422.814	51.36
423.025	18.59
423.237	59.55
423.448	26.78
423.659	-28.51
423.87	69.79
424.082	53.4
424.293	8.35
424.504	34.97
424.715	55.45
424.926	63.64
425.137	22.69
425.348	2.21
425.559	63.64
425.77	18.59
425.981	59.55
426.192	49.31
426.403	71.84
426.614	41.12
426.825	53.4
427.036	51.36
427.247	12.45
427.458	20.64
427.668	12.45
427.879	61.6
428.09	51.36
428.301	-36.71
428.511	75.93
428.722	0.16
428.933	108.7
429.143	71.84
429.354	-38.75
429.565	98.46
429.775	4.25
429.986	43.16
430.196	18.59
430.407	73.88
430.617	53.4
430.828	61.6
431.038	6.3
431.249	102.56
431.459	2.21
431.669	-1.89
431.88	75.93
432.09	59.55
432.3	61.6
432.511	26.78
432.721	45.21
432.931	34.97
433.141	28.83
433.351	34.97
433.562	77.98
433.772	-18.27
433.982	45.21
434.192	2.21
434.402	6.3
434.612	-26.47
434.822	71.84
435.032	10.4
435.242	18.59
435.452	75.93
435.662	32.93
435.872	63.64
436.082	39.07
436.292	34.97
436.502	30.88
436.711	63.64
436.921	45.21
437.131	-14.18
437.341	6.3
437.551	16.54
437.76	22.69
437.97	-5.99
438.18	-1.89
438.389	12.45
438.599	61.6
438.808	30.88
439.018	45.21
439.228	45.21
439.437	18.59
439.647	34.97
439.856	39.07
440.066	26.78
440.275	67.74
440.484	-14.18
440.694	18.59
440.903	-14.18
441.113	-5.99
441.322	-20.32
441.531	-22.37
441.741	47.26
441.95	10.4
442.159	14.49
442.368	39.07
442.577	67.74
442.787	67.74
442.996	67.74
443.205	10.4
443.414	34.97
443.623	47.26
443.832	6.3
444.041	14.49
444.25	20.64
444.459	-30.56
444.668	37.02
444.877	45.21
445.086	-1.89
445.295	67.74
445.504	69.79
445.713	30.88
445.922	43.16
446.13	43.16
446.339	82.08
446.548	-5.99
446.757	-12.13
446.965	-38.75
447.174	26.78
447.383	12.45
447.591	67.74
447.8	10.4
448.009	12.45
448.217	116.89
448.426	53.4
448.634	14.49
448.843	67.74
449.051	28.83
449.26	-55.14
449.468	10.4
449.677	51.36
449.885	96.41
450.093	-10.08
450.302	-30.56
450.51	77.98
450.719	22.69
450.927	6.3
451.135	63.64
451.343	26.78
451.552	14.49
451.76	43.16
451.968	37.02
452.176	2.21
452.384	53.4
452.592	92.32
452.8	116.89
453.009	53.4
453.217	69.79
453.425	12.45
453.633	26.78
453.841	-3.94
454.049	61.6
454.257	26.78
454.464	34.97
454.672	-5.99
454.88	10.4
455.088	-12.13
455.296	4.25
455.504	10.4
455.711	51.36
455.919	4.25
456.127	51.36
456.335	55.45
456.542	90.27
456.75	82.08
456.958	12.45
457.165	43.16
457.373	37.02
457.581	43.16
457.788	20.64
457.996	55.45
458.203	10.4
458.411	-18.27
458.618	59.55
458.826	-24.42
459.033	32.93
459.24	102.56
459.448	104.6
459.655	100.51
459.863	22.69
460.07	59.55
460.277	-3.94
460.484	71.84
460.692	34.97
460.899	26.78
461.106	43.16
461.313	26.78
461.52	28.83
461.728	47.26
461.935	43.16
462.142	71.84
462.349	51.36
462.556	26.78
462.763	-12.13
462.97	30.88
463.177	14.49
463.384	45.21
463.591	57.5
463.798	108.7
464.005	43.16
464.212	-3.94
464.418	37.02
464.625	32.93
464.832	2.21
465.039	30.88
465.246	37.02
465.452	2.21
465.659	63.64
465.866	2.21
466.072	55.45
466.279	55.45
466.486	28.83
466.692	90.27
466.899	61.6
467.105	43.16
467.312	80.03
467.519	30.88
467.725	53.4
467.931	92.32
468.138	4.25
468.344	110.75
468.551	14.49
468.757	41.12
468.964	-10.08
469.17	43.16
469.376	100.51
469.583	55.45
469.789	-44.9
469.995	-3.94
470.201	-28.51
470.408	2.21
470.614	43.16
470.82	110.75
471.026	39.07
471.232	-10.08
471.438	39.07
471.644	43.16
471.85	125.08
472.056	65.69
472.262	118.94
472.468	45.21
472.674	34.97
472.88	26.78
473.086	104.6
473.292	26.78
473.498	80.03
473.704	-1.89
473.91	18.59
474.116	37.02
474.321	116.89
474.527	26.78
474.733	32.93
474.939	63.64
475.144	96.41
475.35	61.6
475.556	69.79
475.761	-5.99
475.967	-14.18
476.173	4.25
476.378	80.03
476.584	55.45
476.789	20.64
476.995	55.45
477.2	-12.13
477.406	-38.75
477.611	-1.89
477.817	59.55
478.022	2.21
478.227	-20.32
478.433	39.07
478.638	18.59
478.843	63.64
479.049	26.78
479.254	92.32
479.459	-14.18
479.664	73.88
479.87	-1.89
480.075	8.35
480.28	34.97
480.485	32.93
480.69	-22.37
480.895	67.74
481.1	34.97
481.306	26.78
481.511	26.78
481.716	-3.94
481.921	-8.03
482.126	75.93
482.33	14.49
482.535	80.03
482.74	-1.89
482.945	108.7
483.15	55.45
483.355	90.27
483.56	18.59
483.765	41.12
483.969	18.59
484.174	43.16
484.379	43.16
484.583	47.26
484.788	41.12
484.993	34.97
485.197	59.55
485.402	63.64
485.607	59.55
485.811	30.88
486.016	69.79
486.22	34.97
486.425	104.6
486.629	43.16
486.834	92.32
487.038	88.22
487.243	59.55
487.447	63.64
487.652	18.59
487.856	37.02
488.06	61.6
488.265	37.02
488.469	116.89
488.673	67.74
488.877	43.16
489.082	-28.51
489.286	84.12
489.49	32.93
489.694	77.98
489.898	43.16
490.102	55.45
490.307	28.83
490.511	43.16
490.715	96.41
490.919	-8.03
491.123	10.4
491.327	43.16
491.531	28.83
491.735	45.21
491.939	71.84
492.143	86.17
492.346	-14.18
492.55	4.25
492.754	45.21
492.958	-8.03
493.162	4.25
493.366	18.59
493.569	26.78
493.773	80.03
493.977	94.36
494.18	71.84
494.384	75.93
494.588	112.8
494.791	2.21
494.995	34.97
495.199	67.74
495.402	69.79
495.606	34.97
495.809	59.55
496.013	2.21
496.216	-10.08
496.42	65.69
496.623	55.45
496.827	45.21
497.03	12.45
497.233	102.56
497.437	43.16
497.64	26.78
497.843	53.4
498.047	43.16
498.25	110.75
498.453	39.07
498.656	4.25
498.86	63.64
499.063	20.64
499.266	88.22
499.469	94.36
499.672	53.4
499.875	-5.99
500.078	69.79
500.281	34.97
500.484	96.41
500.687	41.12
500.89	37.02
501.093	34.97
501.296	20.64
501.499	75.93
501.702	10.4
501.905	-12.13
502.108	16.54
502.311	10.4
502.514	41.12
502.716	104.6
502.919	34.97
503.122	116.89
503.325	57.5
503.527	6.3
503.73	45.21
503.933	61.6
504.135	100.51
504.338	59.55
504.541	47.26
504.743	4.25
504.946	94.36
505.148	63.64
505.351	8.35
505.553	59.55
505.756	26.78
505.958	10.4
506.161	16.54
506.363	8.35
506.565	16.54
506.768	34.97
506.97	-16.23
507.172	69.79
507.375	55.45
507.577	61.6
507.779	18.59
507.982	6.3
508.184	67.74
508.386	86.17
508.588	22.69
508.79	8.35
508.993	51.36
509.195	55.45
509.397	67.74
509.599	-38.75
509.801	37.02
510.003	47.26
510.205	43.16
510.407	51.36
510.609	63.64
510.811	55.45
511.013	63.64
511.215	28.83
511.417	18.59
511.618	63.64
511.82	6.3
512.022	108.7
512.224	51.36
512.426	63.64
512.627	-5.99
512.829	-38.75
513.031	59.55
513.233	96.41
513.434	59.55
513.636	-30.56
513.838	39.07
514.039	-3.94
514.241	73.88
514.442	26.78
514.644	71.84
514.845	16.54
515.047	10.4
515.248	92.32
515.45	61.6
515.651	-20.32
515.853	51.36
516.054	86.17
516.256	18.59
516.457	-10.08
516.658	12.45
516.86	43.16
517.061	100.51
517.262	-5.99
517.463	14.49
517.665	61.6
517.866	112.8
518.067	75.93
518.268	-5.99
518.469	45.21
518.67	24.73
518.872	20.64
519.073	26.78
519.274	61.6
519.475	61.6
519.676	71.84
519.877	84.12
520.078	80.03
520.279	2.21
520.48	12.45
520.681	45.21
520.881	22.69
521.082	43.16
521.283	80.03
521.484	30.88
521.685	84.12
521.886	4.25
522.086	28.83
522.287	-8.03
522.488	30.88
522.689	28.83
522.889	75.93
523.09	63.64
523.291	-5.99
523.491	14.49
523.692	26.78
523.892	75.93
524.093	14.49
524.294	-14.18
524.494	63.64
524.695	39.07
524.895	90.27
525.096	61.6
525.296	47.26
525.496	43.16
525.697	-30.56
525.897	51.36
526.098	-10.08
526.298	30.88
526.498	12.45
526.699	53.4
526.899	22.69
527.099	88.22
527.299	2.21
527.499	75.93
527.7	71.84
527.9	88.22
528.1	98.46
528.3	55.45
528.5	100.51
528.7	59.55
528.9	34.97
529.1	51.36
529.3	18.59
529.5	59.55
529.7	51.36
529.9	30.88
530.1	86.17
530.3	-22.37
530.5	-46.95
530.7	69.79
530.9	43.16
531.1	51.36
531.3	34.97
531.499	65.69
531.699	-22.37
531.899	120.99
532.099	67.74
532.298	125.08
532.498	51.36
532.698	18.59
532.897	20.64
533.097	129.18
533.297	43.16
533.496	37.02
533.696	84.12
533.895	2.21
534.095	28.83
534.294	71.84
534.494	51.36
534.693	39.07
534.893	67.74
535.092	10.4
535.292	28.83
535.491	-3.94
535.69	43.16
535.89	22.69
536.089	59.55
536.288	47.26
536.488	20.64
536.687	10.4
536.886	98.46
537.085	92.32
537.285	-44.9
537.484	34.97
537.683	73.88
537.882	63.64
538.081	55.45
538.28	18.59
538.479	112.8
538.678	20.64
538.877	104.6
539.076	22.69
539.275	39.07
539.474	157.85
539.673	2.21
539.872	59.55
540.071	45.21
540.27	18.59
540.469	43.16
540.668	-12.13
540.867	53.4
541.065	71.84
541.264	94.36
541.463	-28.51
541.662	39.07
541.861	71.84
542.059	12.45
542.258	98.46
542.457	2.21
542.655	26.78
542.854	20.64
543.052	-22.37
543.251	63.64
543.45	71.84
543.648	77.98
543.847	51.36
544.045	55.45
544.244	69.79
544.442	43.16
544.641	39.07
544.839	47.26
545.037	22.69
545.236	18.59
545.434	39.07
545.632	86.17
545.831	92.32
546.029	26.78
546.227	67.74
546.426	53.4
546.624	-5.99
546.822	100.51
547.02	10.4
547.218	18.59
547.417	22.69
547.615	92.32
547.813	86.17
548.011	47.26
548.209	-1.89
548.407	32.93
548.605	84.12
548.803	12.45
549.001	22.69
549.199	43.16
549.397	0.16
549.595	30.88
549.793	102.56
549.991	49.31
550.189	71.84
550.387	75.93
550.584	24.73
550.782	28.83
550.98	-10.08
551.178	71.84
551.376	18.59
551.573	118.94
551.771	73.88
551.969	43.16
552.166	84.12
552.364	67.74
552.562	67.74
552.759	10.4
552.957	67.74
553.154	45.21
553.352	71.84
553.55	112.8
553.747	127.13
553.945	26.78
554.142	51.36
554.339	96.41
554.537	125.08
554.734	-20.32
554.932	75.93
555.129	59.55
555.326	61.6
555.524	57.5
555.721	53.4
555.918	18.59
556.116	-5.99
556.313	100.51
556.51	67.74
556.707	10.4
556.904	0.16
557.102	45.21
557.299	12.45
557.496	22.69
557.693	26.78
557.89	51.36
558.087	59.55
558.284	59.55
558.481	43.16
558.678	-34.66
558.875	67.74
559.072	10.4
559.269	37.02
559.466	75.93
559.663	84.12
559.86	67.74
560.057	47.26
560.254	59.55
560.45	28.83
560.647	26.78
560.844	102.56
561.041	61.6
561.237	43.16
561.434	92.32
561.631	55.45
561.828	53.4
562.024	8.35
562.221	26.78
562.418	108.7
562.614	22.69
562.811	-14.18
563.007	90.27
563.204	43.16
563.4	55.45
563.597	45.21
563.793	61.6
563.99	18.59
564.186	41.12
564.383	80.03
564.579	63.64
564.775	65.69
564.972	96.41
565.168	51.36
565.365	45.21
565.561	80.03
565.757	51.36
565.953	-3.94
566.15	22.69
566.346	61.6
566.542	73.88
566.738	2.21
566.934	51.36
567.131	10.4
567.327	-12.13
567.523	-26.47
567.719	47.26
567.915	71.84
568.111	-28.51
568.307	14.49
568.503	26.78
568.699	96.41
568.895	-5.99
569.091	-3.94
569.287	96.41
569.483	39.07
569.679	37.02
569.875	61.6
570.07	45.21
570.266	71.84
570.462	34.97
570.658	-18.27
570.854	45.21
571.049	133.28
571.245	26.78
571.441	80.03
571.636	59.55
571.832	80.03
572.028	90.27
572.223	12.45
572.419	59.55
572.615	86.17
572.81	75.93
573.006	92.32
573.201	22.69
573.397	43.16
573.592	18.59
573.788	84.12
573.983	51.36
574.179	30.88
574.374	10.4
574.569	10.4
574.765	-20.32
574.96	-3.94
575.156	20.64
575.351	67.74
575.546	80.03
575.741	16.54
575.937	30.88
576.132	55.45
576.327	47.26
576.522	34.97
576.718	22.69
576.913	4.25
577.108	75.93
577.303	20.64
577.498	24.73
577.693	51.36
577.888	2.21
578.083	-5.99
578.278	-14.18
578.473	92.32
578.668	37.02
578.863	71.84
579.058	-12.13
579.253	51.36
579.448	-44.9
579.643	34.97
579.838	73.88
580.033	69.79
580.227	-26.47
580.422	69.79
580.617	10.4
580.812	47.26
581.006	12.45
581.201	108.7
581.396	53.4
581.591	53.4
581.785	80.03
581.98	77.98
582.175	26.78
582.369	14.49
582.564	67.74
582.758	10.4
582.953	28.83
583.147	22.69
583.342	37.02
583.536	45.21
583.731	34.97
583.925	69.79
584.12	41.12
584.314	86.17
584.509	63.64
584.703	84.12
584.897	20.64
585.092	41.12
585.286	30.88
585.48	-46.95
585.674	63.64
585.869	61.6
586.063	22.69
586.257	26.78
586.451	-26.47
586.646	116.89
586.84	-16.23
587.034	71.84
587.228	43.16
587.422	73.88
587.616	84.12
587.81	10.4
588.004	112.8
588.198	2.21
588.392	71.84
588.586	-22.37
588.78	34.97
588.974	69.79
589.168	94.36
589.362	24.73
589.556	100.51
589.75	61.6
589.944	14.49
590.137	65.69
590.331	-1.89
590.525	55.45
590.719	10.4
590.913	92.32
591.106	67.74
591.3	-14.18
591.494	59.55
591.687	55.45
591.881	26.78
592.075	96.41
592.268	84.12
592.462	108.7
592.655	75.93
592.849	-12.13
593.043	10.4
593.236	6.3
593.43	96.41
593.623	-34.66
593.817	4.25
594.01	43.16
594.203	24.73
594.397	65.69
594.59	100.51
594.784	10.4
594.977	24.73
595.17	34.97
595.364	10.4
595.557	-18.27
595.75	61.6
595.943	100.51
596.137	75.93
596.33	26.78
596.523	129.18
596.716	96.41
596.909	28.83
597.102	34.97
597.296	-3.94
597.489	-5.99
597.682	-53.09
597.875	-10.08
598.068	41.12
598.261	61.6
598.454	6.3
598.647	94.36
598.84	88.22
599.033	24.73
599.226	55.45
599.419	20.64
599.611	71.84
599.804	-12.13
599.997	37.02
600.19	34.97
600.383	84.12
600.576	67.74
600.768	14.49
600.961	51.36
601.154	-5.99
601.347	71.84
601.539	43.16
601.732	43.16
601.925	55.45
602.117	75.93
602.31	16.54
602.502	94.36
602.695	-8.03
602.888	49.31
603.08	20.64
603.273	43.16
603.465	-5.99
603.658	26.78
603.85	-22.37
604.043	92.32
604.235	92.32
604.427	82.08
604.62	32.93
604.812	84.12
605.004	-18.27
605.197	55.45
605.389	30.88
605.581	51.36
605.774	43.16
605.966	16.54
606.158	-22.37
606.35	10.4
606.543	67.74
606.735	86.17
606.927	18.59
607.119	43.16
607.311	6.3
607.503	67.74
607.695	28.83
607.887	77.98
608.079	51.36
608.271	63.64
608.463	26.78
608.655	6.3
608.847	80.03
609.039	-5.99
609.231	84.12
609.423	32.93
609.615	51.36
609.807	-1.89
609.999	45.21
610.191	71.84
610.382	94.36
610.574	28.83
610.766	51.36
610.958	-1.89
611.15	133.28
611.341	123.04
611.533	26.78
611.725	18.59
611.916	2.21
612.108	45.21
612.3	30.88
612.491	88.22
612.683	51.36
612.874	92.32
613.066	67.74
613.257	59.55
613.449	26.78
613.64	84.12
613.832	51.36
614.023	84.12
614.215	69.79
614.406	12.45
614.598	43.16
614.789	4.25
614.98	108.7
615.172	37.02
615.363	84.12
615.554	26.78
615.746	82.08
615.937	75.93
616.128	88.22
616.319	51.36
616.511	43.16
616.702	53.4
616.893	14.49
617.084	30.88
617.275	77.98
617.466	32.93
617.658	51.36
617.849	69.79
618.04	37.02
618.231	67.74
618.422	18.59
618.613	37.02
618.804	10.4
618.995	65.69
619.186	24.73
619.377	43.16
619.568	10.4
619.758	2.21
619.949	14.49
620.14	26.78
620.331	-26.47
620.522	-12.13
620.713	63.64
620.903	-30.56
621.094	63.64
621.285	71.84
621.476	-5.99
621.666	55.45
621.857	63.64
622.048	51.36
622.238	80.03
622.429	67.74
622.62	-5.99
622.81	12.45
623.001	18.59
623.191	88.22
623.382	43.16
623.572	37.02
623.763	59.55
623.953	63.64
624.144	-46.95
624.334	137.37
624.525	22.69
624.715	51.36
624.905	120.99
625.096	102.56
625.286	-28.51
625.477	6.3
625.667	-22.37
625.857	63.64
626.047	26.78
626.238	104.6
626.428	22.69
626.618	10.4
626.808	39.07
626.999	-8.03
627.189	34.97
627.379	92.32
627.569	-30.56
627.759	69.79
627.949	10.4
628.139	53.4
628.329	51.36
628.519	20.64
628.709	75.93
628.899	67.74
629.089	-1.89
629.279	53.4
629.469	75.93
629.659	59.55
629.849	116.89
630.039	57.5
630.229	22.69
630.419	-30.56
630.609	6.3
630.798	61.6
630.988	84.12
631.178	55.45
631.368	120.99
631.557	-5.99
631.747	32.93
631.937	2.21
632.127	22.69
632.316	69.79
632.506	45.21
632.696	30.88
632.885	26.78
633.075	53.4
633.264	22.69
633.454	41.12
633.643	-34.66
633.833	104.6
634.022	51.36
634.212	37.02
634.401	57.5
634.591	20.64
634.78	-28.51
634.97	37.02
635.159	18.59
635.348	77.98
635.538	92.32
635.727	39.07
635.916	63.64
636.106	67.74
636.295	61.6
636.484	18.59
636.674	51.36
636.863	18.59
637.052	63.64
637.241	39.07
637.43	6.3
637.619	24.73
637.809	41.12
637.998	-1.89
638.187	6.3
638.376	43.16
638.565	10.4
638.754	59.55
638.943	80.03
639.132	86.17
639.321	43.16
639.51	32.93
639.699	14.49
639.888	84.12
640.077	-1.89
640.266	20.64
640.455	-18.27
640.643	-18.27
640.832	-63.33
641.021	39.07
641.21	37.02
641.399	55.45
641.587	59.55
641.776	69.79
641.965	34.97
642.154	45.21
642.342	98.46
642.531	26.78
642.72	-51.04
642.908	34.97
643.097	86.17
643.286	30.88
643.474	-10.08
643.663	10.4
643.851	18.59
644.04	114.84
644.228	28.83
644.417	12.45
644.605	71.84
644.794	39.07
644.982	37.02
645.171	6.3
645.359	75.93
645.547	92.32
645.736	28.83
645.924	43.16
646.112	47.26
646.301	-1.89
646.489	94.36
646.677	-12.13
646.866	2.21
647.054	0.16
647.242	47.26
647.43	69.79
647.618	100.51
647.807	39.07
647.995	34.97
648.183	37.02
648.371	53.4
648.559	-1.89
648.747	80.03
648.935	69.79
649.123	45.21
649.311	57.5
649.499	98.46
649.687	63.64
649.875	41.12
650.063	2.21
650.251	-10.08
650.439	12.45
650.627	53.4
650.815	86.17
651.003	26.78
651.191	43.16
651.378	82.08
651.566	65.69
651.754	45.21
651.942	-5.99
652.13	51.36
652.317	75.93
652.505	67.74
652.693	43.16
652.88	92.32
653.068	18.59
653.256	6.3
653.443	49.31
653.631	75.93
653.819	67.74
654.006	-5.99
654.194	8.35
654.381	-38.75
654.569	-5.99
654.756	-5.99
654.944	92.32
655.131	28.83
655.319	24.73
655.506	57.5
655.693	-20.32
655.881	51.36
656.068	51.36
656.256	26.78
656.443	47.26
656.63	67.74
656.818	53.4
657.005	45.21
657.192	18.59
657.379	51.36
657.567	161.95
657.754	-30.56
657.941	69.79
658.128	108.7
658.315	-12.13
658.502	51.36
658.69	10.4
658.877	67.74
659.064	92.32
659.251	24.73
659.438	49.31
659.625	67.74
659.812	51.36
659.999	47.26
660.186	84.12
660.373	39.07
660.56	8.35
660.747	37.02
660.934	28.83
661.121	86.17
661.308	-5.99
661.494	71.84
661.681	80.03
661.868	106.65
662.055	59.55
662.242	51.36
662.428	32.93
662.615	112.8
662.802	63.64
662.989	10.4
663.175	55.45
663.362	18.59
663.549	18.59
663.735	-16.23
663.922	61.6
664.109	12.45
664.295	139.42
664.482	34.97
664.668	-44.9
664.855	34.97
665.041	26.78
665.228	94.36
665.414	88.22
665.601	53.4
665.787	80.03
665.974	-12.13
666.16	20.64
666.347	116.89
666.533	94.36
666.719	51.36
666.906	18.59
667.092	-26.47
667.278	92.32
667.465	14.49
667.651	43.16
667.837	108.7
668.023	34.97
668.21	2.21
668.396	82.08
668.582	-1.89
668.768	77.98
668.954	96.41
669.14	151.71
669.327	43.16
669.513	24.73
669.699	4.25
669.885	22.69
670.071	55.45
670.257	71.84
670.443	18.59
670.629	45.21
670.815	45.21
671.001	34.97
671.187	20.64
671.373	37.02
671.559	43.16
671.744	26.78
671.93	69.79
672.116	77.98
672.302	77.98
672.488	-3.94
672.674	22.69
672.859	53.4
673.045	41.12
673.231	73.88
673.417	73.88
673.602	10.4
673.788	-20.32
673.974	20.64
674.159	-16.23
674.345	10.4
674.531	18.59
674.716	34.97
674.902	28.83
675.087	26.78
675.273	-1.89
675.459	75.93
675.644	51.36
675.83	39.07
676.015	20.64
676.2	92.32
676.386	59.55
676.571	30.88
676.757	12.45
676.942	71.84
677.128	84.12
677.313	45.21
677.498	108.7
677.684	51.36
677.869	6.3
678.054	-14.18
678.24	110.75
678.425	18.59
678.61	75.93
678.795	26.78
678.98	55.45
679.166	67.74
679.351	32.93
679.536	51.36
679.721	43.16
679.906	26.78
680.091	69.79
680.276	-51.04
680.461	59.55
680.647	30.88
680.832	-3.94
681.017	120.99
681.202	-10.08
681.387	10.4
681.572	34.97
681.756	108.7
681.941	-22.37
682.126	30.88
682.311	-5.99
682.496	30.88
682.681	18.59
682.866	45.21
683.051	12.45
683.235	4.25
683.42	30.88
683.605	47.26
683.79	69.79
683.974	67.74
684.159	63.64
684.344	30.88
684.529	75.93
684.713	12.45
684.898	18.59
685.083	51.36
685.267	34.97
685.452	-34.66
685.636	61.6
685.821	80.03
686.005	39.07
686.19	102.56
686.375	92.32
686.559	43.16
686.744	0.16
686.928	137.37
687.112	53.4
687.297	-1.89
687.481	34.97
687.666	84.12
687.85	71.84
688.034	75.93
688.219	75.93
688.403	63.64
688.587	6.3
688.772	-22.37
688.956	-32.61
689.14	41.12
689.324	67.74
689.509	10.4
689.693	55.45
689.877	82.08
690.061	-12.13
690.245	63.64
690.43	86.17
690.614	8.35
690.798	-3.94
690.982	133.28
691.166	-22.37
691.35	47.26
691.534	75.93
691.718	80.03
691.902	-20.32
692.086	26.78
692.27	67.74
692.454	6.3
692.638	2.21
692.822	30.88
693.006	108.7
693.19	84.12
693.373	2.21
693.557	53.4
693.741	69.79
693.925	84.12
694.109	88.22
694.293	43.16
694.476	18.59
694.66	-3.94
694.844	34.97
695.027	127.13
695.211	59.55
695.395	47.26
695.578	22.69
695.762	67.74
695.946	133.28
696.129	10.4
696.313	98.46
696.497	30.88
696.68	65.69
696.864	-22.37
697.047	28.83
697.231	51.36
697.414	67.74
697.598	77.98
697.781	10.4
697.965	55.45
698.148	47.26
698.331	22.69
698.515	18.59
698.698	34.97
698.881	-5.99
699.065	20.64
699.248	6.3
699.431	18.59
699.615	-46.95
699.798	2.21
699.981	69.79
700.165	-14.18
700.348	45.21
700.531	-3.94
700.714	45.21
700.897	26.78
701.08	30.88
701.264	18.59
701.447	26.78
701.63	71.84
701.813	92.32
701.996	6.3
702.179	-1.89
702.362	-14.18
702.545	41.12
702.728	96.41
702.911	-28.51
703.094	96.41
703.277	30.88
703.46	10.4
703.643	14.49
703.826	18.59
704.009	-24.42
704.191	26.78
704.374	94.36
704.557	26.78
704.74	-5.99
704.923	71.84
705.106	34.97
705.288	63.64
705.471	26.78
705.654	45.21
705.837	75.93
706.019	-1.89
706.202	18.59
706.385	51.36
706.567	20.64
706.75	14.49
706.932	71.84
707.115	16.54
707.298	84.12
707.48	-3.94
707.663	-10.08
707.845	43.16
708.028	51.36
708.21	47.26
708.393	43.16
708.575	-14.18
708.758	37.02
708.94	18.59
709.123	26.78
709.305	59.55
709.487	14.49
709.67	34.97
709.852	-34.66
710.034	86.17
710.217	26.78
710.399	94.36
710.581	18.59
710.764	51.36
710.946	104.6
711.128	75.93
711.31	41.12
711.492	-12.13
711.675	26.78
711.857	100.51
712.039	-24.42
712.221	30.88
712.403	34.97
712.585	75.93
712.767	51.36
712.949	28.83
713.131	12.45
713.314	22.69
713.496	18.59
713.678	34.97
713.86	2.21
714.041	135.32
714.223	57.5
714.405	6.3
714.587	18.59
714.769	86.17
714.951	51.36
715.133	20.64
715.315	-46.95
715.497	59.55
715.678	53.4
715.86	6.3
716.042	51.36
716.224	34.97
716.406	34.97
716.587	-30.56
716.769	80.03
716.951	84.12
717.132	63.64
717.314	88.22
717.496	39.07
717.677	69.79
717.859	53.4
718.041	18.59
718.222	80.03
718.404	12.45
718.585	149.66
718.767	51.36
718.948	34.97
719.13	67.74
719.311	116.89
719.493	92.32
719.674	94.36
719.856	10.4
720.037	82.08
720.219	51.36
720.4	59.55
720.581	-44.9
720.763	69.79
720.944	39.07
721.125	26.78
721.307	110.75
721.488	61.6
721.669	22.69
721.85	84.12
722.032	75.93
722.213	77.98
722.394	67.74
722.575	-79.71
722.756	18.59
722.938	63.64
723.119	18.59
723.3	75.93
723.481	77.98
723.662	26.78
723.843	26.78
724.024	75.93
724.205	125.08
724.386	39.07
724.567	10.4
724.748	-46.95
724.929	39.07
725.11	14.49
725.291	63.64
725.472	92.32
725.653	28.83
725.834	39.07
726.015	30.88
726.196	10.4
726.377	63.64
726.557	71.84
726.738	75.93
726.919	51.36
727.1	-46.95
727.281	84.12
727.461	24.73
727.642	63.64
727.823	92.32
728.004	49.31
728.184	39.07
728.365	-16.23
728.546	82.08
728.726	67.74
728.907	-30.56
729.087	18.59
729.268	2.21
729.449	28.83
729.629	65.69
729.81	0.16
729.99	67.74
730.171	20.64
730.351	57.5
730.532	39.07
730.712	104.6
730.893	75.93
731.073	-30.56
731.253	61.6
731.434	55.45
731.614	34.97
731.795	6.3
731.975	49.31
732.155	63.64
732.336	92.32
732.516	63.64
732.696	108.7
732.876	-10.08
733.057	12.45
733.237	75.93
733.417	118.94
733.597	2.21
733.778	51.36
733.958	24.73
734.138	8.35
734.318	34.97
734.498	-10.08
734.678	-28.51
734.858	10.4
735.038	-30.56
735.218	6.3
735.398	59.55
735.579	-3.94
735.759	-12.13
735.939	-10.08
736.119	37.02
736.298	75.93
736.478	0.16
736.658	59.55
736.838	67.74
737.018	26.78
737.198	20.64
737.378	-12.13
737.558	84.12
737.738	-40.8
737.917	18.59
738.097	43.16
738.277	12.45
738.457	28.83
738.637	51.36
738.816	-12.13
738.996	-5.99
739.176	71.84
739.355	14.49
739.535	65.69
739.715	28.83
739.894	32.93
740.074	57.5
740.254	45.21
740.433	28.83
740.613	59.55
740.792	39.07
740.972	26.78
741.151	67.74
741.331	-1.89
741.51	34.97
741.69	34.97
741.869	77.98
742.049	133.28
742.228	8.35
742.408	53.4
742.587	12.45
742.766	0.16
742.946	59.55
743.125	59.55
743.305	-22.37
743.484	45.21
743.663	51.36
743.842	12.45
744.022	96.41
744.201	92.32
744.38	-12.13
744.56	10.4
744.739	16.54
744.918	10.4
745.097	-48.99
745.276	102.56
745.455	80.03
745.635	-14.18
745.814	6.3
745.993	59.55
746.172	69.79
746.351	6.3
746.53	-14.18
746.709	10.4
746.888	34.97
747.067	26.78
747.246	-1.89
747.425	4.25
747.604	-3.94
747.783	53.4
747.962	39.07
748.141	100.51
748.32	34.97
748.499	37.02
748.677	-53.09
748.856	51.36
749.035	30.88
749.214	26.78
749.393	34.97
749.572	32.93
749.75	75.93
749.929	26.78
750.108	37.02
750.287	59.55
750.465	47.26
750.644	6.3
750.823	80.03
751.001	55.45
751.18	100.51
751.359	51.36
751.537	53.4
751.716	12.45
751.894	26.78
752.073	43.16
752.251	73.88
752.43	67.74
752.609	141.47
752.787	84.12
752.966	65.69
753.144	37.02
753.322	30.88
753.501	37.02
753.679	69.79
753.858	12.45
754.036	41.12
754.215	86.17
754.393	-5.99
754.571	-26.47
754.75	51.36
754.928	12.45
755.106	47.26
755.284	26.78
755.463	32.93
755.641	26.78
755.819	30.88
755.997	59.55
756.176	-1.89
756.354	22.69
756.532	14.49
756.71	67.74
756.888	63.64
757.066	-20.32
757.245	59.55
757.423	26.78
757.601	61.6
757.779	2.21
757.957	26.78
758.135	-5.99
758.313	26.78
758.491	30.88
758.669	71.84
758.847	47.26
759.025	77.98
759.203	32.93
759.381	80.03
759.559	20.64
759.737	69.79
759.915	59.55
760.092	65.69
760.27	45.21
760.448	39.07
760.626	22.69
760.804	37.02
760.981	26.78
761.159	67.74
761.337	20.64
761.515	10.4
761.692	75.93
761.87	47.26
762.048	-28.51
762.226	67.74
762.403	59.55
762.581	69.79
762.759	69.79
762.936	12.45
763.114	12.45
763.291	22.69
763.469	20.64
763.647	-30.56
763.824	59.55
764.002	69.79
764.179	59.55
764.357	30.88
764.534	18.59
764.712	4.25
764.889	30.88
765.066	102.56
765.244	-34.66
765.421	110.75
765.599	63.64
765.776	69.79
765.953	28.83
766.131	12.45
766.308	88.22
766.485	67.74
766.663	59.55
766.84	18.59
767.017	75.93
767.194	30.88
767.372	-3.94
767.549	96.41
767.726	34.97
767.903	100.51
768.081	-14.18
768.258	-12.13
768.435	24.73
768.612	94.36
768.789	8.35
768.966	55.45
769.143	26.78
769.32	4.25
769.497	28.83
769.674	30.88
769.851	16.54
770.028	84.12
770.205	6.3
770.382	10.4
770.559	-14.18
770.736	37.02
770.913	20.64
771.09	49.31
771.267	59.55
771.444	-26.47
771.621	-34.66
771.798	55.45
771.975	-36.71
772.151	84.12
772.328	30.88
772.505	51.36
772.682	55.45
772.859	24.73
773.035	-8.03
773.212	94.36
773.389	34.97
773.565	45.21
773.742	-38.75
773.919	47.26
774.096	43.16
774.272	2.21
774.449	-18.27
774.625	53.4
774.802	71.84
774.979	20.64
775.155	-30.56
775.332	67.74
775.508	92.32
775.685	80.03
775.861	45.21
776.038	135.32
776.214	34.97
776.391	84.12
776.567	34.97
776.744	112.8
776.92	12.45
777.096	-28.51
777.273	22.69
777.449	-30.56
777.626	43.16
777.802	-30.56
777.978	55.45
778.155	-1.89
778.331	26.78
778.507	75.93
778.683	2.21
778.86	63.64
779.036	43.16
779.212	34.97
779.388	59.55
779.565	84.12
779.741	24.73
779.917	96.41
780.093	14.49
780.269	22.69
780.445	12.45
780.621	37.02
780.797	80.03
780.974	47.26
781.15	16.54
781.326	116.89
781.502	-20.32
781.678	55.45
781.854	45.21
782.03	75.93
782.206	86.17
782.382	28.83
782.558	30.88
782.733	51.36
782.909	80.03
783.085	84.12
783.261	88.22
783.437	45.21
783.613	20.64
783.789	32.93
783.965	-20.32
784.14	6.3
784.316	51.36
784.492	30.88
784.668	45.21
784.843	26.78
785.019	82.08
785.195	28.83
785.371	59.55
785.546	2.21
785.722	37.02
785.898	41.12
786.073	75.93
786.249	63.64
786.424	100.51
786.6	94.36
786.776	14.49
786.951	84.12
787.127	71.84
787.302	59.55
787.478	0.16
787.653	106.65
787.829	24.73
788.004	-10.08
788.18	59.55
788.355	55.45
788.531	22.69
788.706	92.32
788.881	26.78
789.057	100.51
789.232	-12.13
789.408	94.36
789.583	51.36
789.758	51.36
789.934	125.08
790.109	10.4
790.284	2.21
790.459	100.51
790.635	-12.13
790.81	45.21
790.985	71.84
791.16	-5.99
791.336	10.4
791.511	2.21
791.686	77.98
791.861	47.26
792.036	8.35
792.211	88.22
792.387	-5.99
792.562	116.89
792.737	32.93
792.912	37.02
793.087	-1.89
793.262	0.16
793.437	53.4
793.612	53.4
793.787	-14.18
793.962	84.12
794.137	2.21
794.312	-12.13
794.487	94.36
794.662	77.98
794.837	59.55
795.011	14.49
795.186	73.88
795.361	45.21
795.536	55.45
795.711	43.16
795.886	96.41
796.06	120.99
796.235	2.21
796.41	18.59
796.585	45.21
796.76	-3.94
796.934	-3.94
797.109	26.78
797.284	26.78
797.458	108.7
797.633	12.45
797.808	22.69
797.982	6.3
798.157	86.17
798.332	59.55
798.506	30.88
798.681	10.4
798.855	57.5
799.03	61.6
799.204	43.16
799.379	61.6
799.553	10.4
799.728	59.55
799.902	28.83
800.077	94.36
800.251	88.22
800.426	43.16
800.6	20.64
800.775	59.55
800.949	45.21
801.123	88.22
801.298	6.3
801.472	8.35
801.647	0.16
801.821	63.64
801.995	67.74
802.169	4.25
802.344	63.64
802.518	10.4
802.692	22.69
802.867	84.12
803.041	47.26
803.215	75.93
803.389	4.25
803.563	18.59
803.737	139.42
803.912	26.78
804.086	90.27
804.26	100.51
804.434	51.36
804.608	12.45
804.782	6.3
804.956	57.5
805.13	18.59
805.304	12.45
805.478	39.07
805.652	39.07
805.826	82.08
806	2.21
806.174	26.78
806.348	2.21
806.522	43.16
806.696	84.12
806.87	-14.18
807.044	26.78
807.218	37.02
807.392	123.04
807.566	30.88
807.739	108.7
807.913	6.3
808.087	59.55
808.261	53.4
808.435	80.03
808.608	96.41
808.782	6.3
808.956	57.5
809.13	-46.95
809.303	-26.47
809.477	86.17
809.651	26.78
809.824	34.97
809.998	-46.95
810.172	18.59
810.345	34.97
810.519	43.16
810.692	43.16
810.866	34.97
811.04	2.21
811.213	96.41
811.387	63.64
811.56	43.16
811.734	59.55
811.907	-12.13
812.081	10.4
812.254	10.4
812.428	84.12
812.601	0.16
812.774	-5.99
812.948	106.65
813.121	-14.18
813.295	55.45
813.468	77.98
813.641	73.88
813.815	47.26
813.988	63.64
814.161	32.93
814.335	86.17
814.508	61.6
814.681	34.97
814.854	39.07
815.028	-1.89
815.201	26.78
815.374	90.27
815.547	2.21
815.72	-26.47
815.894	49.31
816.067	-14.18
816.24	104.6
816.413	90.27
816.586	149.66
816.759	43.16
816.932	59.55
817.105	43.16
817.278	20.64
817.452	-28.51
817.625	-10.08
817.798	63.64
817.971	4.25
818.144	55.45
818.317	16.54
818.49	84.12
818.662	102.56
818.835	16.54
819.008	86.17
819.181	-26.47
819.354	43.16
819.527	71.84
819.7	51.36
819.873	77.98
820.046	53.4
820.218	47.26
820.391	86.17
820.564	22.69
820.737	18.59
820.909	-5.99
821.082	120.99
821.255	34.97
821.428	24.73
821.6	30.88
821.773	75.93
821.946	71.84
822.118	71.84
822.291	80.03
822.464	8.35
822.636	26.78
822.809	75.93
822.982	18.59
823.154	34.97
823.327	2.21
823.499	2.21
823.672	47.26
823.844	88.22
824.017	84.12
824.189	18.59
824.362	67.74
824.534	53.4
824.707	28.83
824.879	80.03
825.052	59.55
825.224	92.32
825.396	-3.94
825.569	75.93
825.741	28.83
825.914	-46.95
826.086	98.46
826.258	53.4
826.431	131.23
826.603	28.83
826.775	-18.27
826.947	30.88
827.12	-24.42
827.292	61.6
827.464	16.54
827.636	41.12
827.809	8.35
827.981	106.65
828.153	71.84
828.325	63.64
828.497	28.83
828.669	82.08
828.842	-5.99
829.014	94.36
829.186	71.84
829.358	75.93
829.53	51.36
829.702	92.32
829.874	6.3
830.046	-3.94
830.218	34.97
830.39	39.07
830.562	-3.94
830.734	69.79
830.906	43.16
831.078	39.07
831.25	55.45
831.422	59.55
831.594	75.93
831.766	92.32
831.937	-22.37
832.109	34.97
832.281	2.21
832.453	51.36
832.625	34.97
832.797	53.4
832.968	10.4
833.14	69.79
833.312	61.6
833.484	26.78
833.655	4.25
833.827	80.03
833.999	22.69
834.171	-26.47
834.342	90.27
834.514	59.55
834.686	-30.56
834.857	75.93
835.029	82.08
835.2	116.89
835.372	14.49
835.544	86.17
835.715	30.88
835.887	127.13
836.058	16.54
836.23	75.93
836.401	32.93
836.573	67.74
836.744	-24.42
836.916	2.21
837.087	88.22
837.259	75.93
837.43	28.83
837.602	98.46
837.773	-51.04
837.945	116.89
838.116	2.21
838.287	51.36
838.459	34.97
838.63	86.17
838.801	34.97
838.973	-1.89
839.144	0.16
839.315	34.97
839.487	-10.08
839.658	43.16
839.829	-40.8
840	34.97
840.172	-5.99
840.343	51.36
840.514	108.7
840.685	26.78
840.856	30.88
841.027	86.17
841.199	43.16
841.37	69.79
841.541	-26.47
841.712	20.64
841.883	4.25
842.054	41.12
842.225	16.54
842.396	10.4
842.567	34.97
842.738	77.98
842.909	26.78
843.08	67.74
843.251	20.64
843.422	108.7
843.593	10.4
843.764	65.69
843.935	43.16
844.106	-5.99
844.277	45.21
844.448	116.89
844.619	57.5
844.79	57.5
844.96	24.73
845.131	59.55
845.302	26.78
845.473	75.93
845.644	92.32
845.814	80.03
845.985	30.88
846.156	67.74
846.327	73.88
846.497	86.17
846.668	88.22
846.839	10.4
847.01	18.59
847.18	51.36
847.351	26.78
847.522	39.07
847.692	-53.09
847.863	43.16
848.033	43.16
848.204	43.16
848.375	43.16
848.545	26.78
848.716	77.98
848.886	18.59
849.057	43.16
849.227	18.59
849.398	75.93
849.568	34.97
849.739	39.07
849.909	20.64
850.08	45.21
850.25	10.4
850.421	34.97
850.591	59.55
850.761	-14.18
850.932	80.03
851.102	30.88
851.272	59.55
851.443	18.59
851.613	14.49
851.783	45.21
851.954	20.64
852.124	45.21
852.294	73.88
852.465	-24.42
852.635	82.08
852.805	84.12
852.975	51.36
853.145	104.6
853.316	80.03
853.486	86.17
853.656	20.64
853.826	108.7
853.996	84.12
854.166	69.79
854.337	53.4
854.507	43.16
854.677	92.32
854.847	24.73
855.017	-12.13
855.187	32.93
855.357	59.55
855.527	71.84
855.697	30.88
855.867	26.78
856.037	-1.89
856.207	53.4
856.377	26.78
856.547	18.59
856.717	32.93
856.887	98.46
857.057	75.93
857.227	-32.61
857.397	80.03
857.566	34.97
857.736	77.98
857.906	-18.27
858.076	43.16
858.246	2.21
858.416	118.94
858.585	57.5
858.755	67.74
858.925	34.97
859.095	-46.95
859.264	18.59
859.434	45.21
859.604	-5.99
859.774	4.25
859.943	14.49
860.113	26.78
860.283	69.79
860.452	4.25
860.622	-53.09
860.791	-3.94
860.961	39.07
861.131	45.21
861.3	43.16
861.47	30.88
861.639	75.93
861.809	73.88
861.978	51.36
862.148	30.88
862.318	43.16
862.487	28.83
862.657	-1.89
862.826	96.41
862.995	39.07
863.165	67.74
863.334	77.98
863.504	-5.99
863.673	22.69
863.843	6.3
864.012	34.97
864.181	-1.89
864.351	45.21
864.52	63.64
864.689	80.03
864.859	73.88
865.028	75.93
865.197	-18.27
865.366	-28.51
865.536	65.69
865.705	16.54
865.874	47.26
866.043	100.51
866.213	37.02
866.382	59.55
866.551	28.83
866.72	12.45
866.889	129.18
867.059	47.26
867.228	67.74
867.397	92.32
867.566	28.83
867.735	77.98
867.904	43.16
868.073	57.5
868.242	86.17
868.411	80.03
868.58	0.16
868.749	18.59
868.918	67.74
869.087	92.32
869.256	43.16
869.425	71.84
869.594	0.16
869.763	59.55
869.932	53.4
870.101	43.16
870.27	26.78
870.439	69.79
870.608	86.17
870.777	-14.18
870.945	34.97
871.114	4.25
871.283	94.36
871.452	4.25
871.621	18.59
871.789	2.21
871.958	28.83
872.127	28.83
872.296	53.4
872.464	4.25
872.633	57.5
872.802	59.55
872.971	77.98
873.139	59.55
873.308	-16.23
873.477	24.73
873.645	18.59
873.814	-20.32
873.983	-3.94
874.151	53.4
874.32	2.21
874.488	63.64
874.657	28.83
874.826	4.25
874.994	51.36
875.163	84.12
875.331	80.03
875.5	32.93
875.668	-5.99
875.837	100.51
876.005	135.32
876.174	18.59
876.342	-18.27
876.51	69.79
876.679	112.8
876.847	51.36
877.016	49.31
877.184	8.35
877.352	86.17
877.521	47.26
877.689	80.03
877.857	84.12
878.026	39.07
878.194	43.16
878.362	55.45
878.531	43.16
878.699	108.7
878.867	59.55
879.036	75.93
879.204	28.83
879.372	59.55
879.54	10.4
879.708	67.74
879.877	67.74
880.045	26.78
880.213	30.88
880.381	37.02
880.549	104.6
880.717	55.45
880.885	2.21
881.054	6.3
881.222	88.22
881.39	51.36
881.558	-24.42
881.726	55.45
881.894	43.16
882.062	41.12
882.23	-3.94
882.398	92.32
882.566	10.4
882.734	34.97
882.902	30.88
883.07	77.98
883.238	20.64
883.406	159.9
883.574	53.4
883.741	22.69
883.909	-10.08
884.077	53.4
884.245	39.07
884.413	59.55
884.581	-14.18
884.749	24.73
884.916	-18.27
885.084	37.02
885.252	71.84
885.42	10.4
885.587	39.07
885.755	53.4
885.923	92.32
886.091	110.75
886.258	6.3
886.426	100.51
886.594	-42.85
886.761	59.55
886.929	73.88
887.097	75.93
887.264	71.84
887.432	28.83
887.6	41.12
887.767	53.4
887.935	-20.32
888.102	24.73
888.27	61.6
888.438	59.55
888.605	39.07
888.773	86.17
888.94	39.07
889.108	20.64
889.275	-18.27
889.443	131.23
889.61	53.4
889.778	14.49
889.945	51.36
890.112	63.64
890.28	34.97
890.447	59.55
890.615	26.78
890.782	45.21
890.949	18.59
891.117	63.64
891.284	59.55
891.452	61.6
891.619	67.74
891.786	28.83
891.953	77.98
892.121	94.36
892.288	26.78
892.455	110.75
892.623	26.78
892.79	6.3
892.957	49.31
893.124	-34.66
893.291	84.12
893.459	28.83
893.626	82.08
893.793	75.93
893.96	86.17
894.127	55.45
894.294	2.21
894.461	51.36
894.629	75.93
894.796	45.21
894.963	-3.94
895.13	43.16
895.297	30.88
895.464	6.3
895.631	59.55
895.798	43.16
895.965	86.17
896.132	116.89
896.299	37.02
896.466	26.78
896.633	22.69
896.8	94.36
896.967	45.21
897.134	59.55
897.301	69.79
897.467	39.07
897.634	34.97
897.801	-5.99
897.968	10.4
898.135	96.41
898.302	45.21
898.469	-30.56
898.635	96.41
898.802	110.75
898.969	28.83
899.136	75.93
899.303	39.07
