Data from dark_USB4E013581_00014.txt Node
Date: Wed May 08 15:05:46 EDT 2019
User: dh1006
Spectrometer: USB4E01358
Autoset integration time: false
Trigger mode: 4
Integration Time (sec): 2.925000E-2
Scans to average: 1
Electric dark correction enabled: true
Nonlinearity correction enabled: false
Boxcar width: 0
Stray light correction enabled: false
XAxis mode: Wavelengths
Stop averaging: false
Number of Pixels in Spectrum: 3648
>>>>>Begin Spectral Data<<<<<
176.727	-10.4
176.966	-10.4
177.205	-10.4
177.444	-14.49
177.683	38.75
177.922	-45.21
178.161	18.27
178.4	8.03
178.638	20.32
178.877	55.14
179.116	8.03
179.355	-39.07
179.593	-18.59
179.832	-16.54
180.071	96.1
180.309	10.08
180.548	-51.36
180.786	14.18
181.025	22.37
181.263	-51.36
181.502	20.32
181.74	-59.55
181.979	-43.16
182.217	-47.26
182.456	63.33
182.694	-51.36
182.932	-63.64
183.17	-59.55
183.409	32.61
183.647	-22.69
183.885	-59.55
184.123	-8.35
184.361	46.95
184.6	-14.49
184.838	-22.69
185.076	-53.4
185.314	12.13
185.552	-24.73
185.79	-2.21
186.028	-59.55
186.266	-2.21
186.503	30.56
186.741	24.42
186.979	14.18
187.217	48.99
187.455	-96.41
187.693	-18.59
187.93	-2.21
188.168	14.18
188.406	42.85
188.643	40.8
188.881	-84.12
189.119	-8.35
189.356	-63.64
189.594	-63.64
189.831	-10.4
190.069	46.95
190.306	1.89
190.543	-6.3
190.781	18.27
191.018	48.99
191.256	59.23
191.493	1.89
191.73	18.27
191.967	1.89
192.205	-12.45
192.442	-26.78
192.679	108.38
192.916	-26.78
193.153	8.03
193.39	55.14
193.628	-8.35
193.865	-77.98
194.102	5.99
194.339	-47.26
194.576	38.75
194.813	34.66
195.049	-59.55
195.286	-22.69
195.523	34.66
195.76	20.32
195.997	-28.83
196.234	-30.88
196.47	42.85
196.707	-51.36
196.944	-67.74
197.18	-10.4
197.417	-2.21
197.654	-0.16
197.89	26.47
198.127	-8.35
198.363	59.23
198.6	-18.59
198.836	-39.07
199.073	18.27
199.309	22.37
199.546	-8.35
199.782	38.75
200.018	-8.35
200.255	-22.69
200.491	46.95
200.727	-32.93
200.963	-49.31
201.199	67.43
201.436	-26.78
201.672	42.85
201.908	32.61
202.144	-18.59
202.38	-18.59
202.616	-37.02
202.852	-0.16
203.088	14.18
203.324	1.89
203.56	59.23
203.796	24.42
204.032	20.32
204.268	-14.49
204.503	24.42
204.739	-8.35
204.975	8.03
205.211	79.71
205.446	-8.35
205.682	46.95
205.918	5.99
206.153	57.19
206.389	-2.21
206.625	-55.45
206.86	3.94
207.096	-0.16
207.331	-41.12
207.567	-26.78
207.802	-43.16
208.037	-22.69
208.273	-2.21
208.508	22.37
208.744	22.37
208.979	14.18
209.214	-30.88
209.449	-41.12
209.685	-18.59
209.92	-26.78
210.155	-18.59
210.39	63.33
210.625	-34.97
210.86	-49.31
211.095	-12.45
211.33	16.23
211.565	-26.78
211.8	-4.25
212.035	-88.22
212.27	75.62
212.505	-24.73
212.74	28.51
212.975	12.13
213.21	63.33
213.444	3.94
213.679	24.42
213.914	18.27
214.149	32.61
214.383	-4.25
214.618	48.99
214.853	-32.93
215.087	-18.59
215.322	5.99
215.556	34.66
215.791	8.03
216.025	-10.4
216.26	16.23
216.494	46.95
216.729	40.8
216.963	-26.78
217.197	5.99
217.432	26.47
217.666	55.14
217.9	22.37
218.135	28.51
218.369	46.95
218.603	-110.75
218.837	-41.12
219.071	-26.78
219.306	-8.35
219.54	3.94
219.774	67.43
220.008	-2.21
220.242	-71.84
220.476	-10.4
220.71	-26.78
220.944	26.47
221.178	-127.13
221.411	-65.69
221.645	-34.97
221.879	-2.21
222.113	1.89
222.347	-26.78
222.58	-0.16
222.814	8.03
223.048	40.8
223.281	14.18
223.515	-51.36
223.749	26.47
223.982	10.08
224.216	-16.54
224.449	26.47
224.683	-75.93
224.916	32.61
225.15	51.04
225.383	8.03
225.617	63.33
225.85	-26.78
226.083	-14.49
226.317	46.95
226.55	-26.78
226.783	-24.73
227.016	-63.64
227.25	-2.21
227.483	-0.16
227.716	55.14
227.949	-10.4
228.182	-12.45
228.415	-14.49
228.648	-0.16
228.881	-49.31
229.114	14.18
229.347	22.37
229.58	5.99
229.813	28.51
230.046	40.8
230.279	-6.3
230.512	-0.16
230.745	92
230.977	-26.78
231.21	14.18
231.443	-6.3
231.675	-2.21
231.908	-22.69
232.141	10.08
232.373	42.85
232.606	-10.4
232.839	-8.35
233.071	-57.5
233.304	-67.74
233.536	-34.97
233.769	34.66
234.001	-22.69
234.233	-18.59
234.466	-12.45
234.698	-18.59
234.93	-96.41
235.163	51.04
235.395	46.95
235.627	-55.45
235.86	-10.4
236.092	-10.4
236.324	8.03
236.556	22.37
236.788	34.66
237.02	-10.4
237.252	-10.4
237.484	79.71
237.716	22.37
237.948	-43.16
238.18	65.38
238.412	38.75
238.644	-10.4
238.876	16.23
239.108	-67.74
239.34	-10.4
239.571	-2.21
239.803	48.99
240.035	-63.64
240.267	18.27
240.498	1.89
240.73	38.75
240.962	5.99
241.193	87.91
241.425	22.37
241.656	-24.73
241.888	-18.59
242.119	22.37
242.351	-24.73
242.582	48.99
242.814	-73.88
243.045	-6.3
243.277	-34.97
243.508	5.99
243.739	-41.12
243.971	-26.78
244.202	-14.49
244.433	-26.78
244.664	-26.78
244.896	46.95
245.127	10.08
245.358	79.71
245.589	5.99
245.82	-10.4
246.051	44.9
246.282	-10.4
246.513	3.94
246.744	28.51
246.975	8.03
247.206	-39.07
247.437	-20.64
247.668	-10.4
247.899	-82.08
248.129	1.89
248.36	-6.3
248.591	-22.69
248.822	14.18
249.052	-24.73
249.283	-32.93
249.514	-18.59
249.744	22.37
249.975	16.23
250.206	5.99
250.436	1.89
250.667	14.18
250.897	-47.26
251.128	55.14
251.358	-28.83
251.589	-18.59
251.819	26.47
252.049	71.52
252.28	-57.5
252.51	-24.73
252.74	-18.59
252.971	-22.69
253.201	-10.4
253.431	-49.31
253.661	-26.78
253.891	-14.49
254.121	16.23
254.352	24.42
254.582	-30.88
254.812	-32.93
255.042	5.99
255.272	20.32
255.502	-28.83
255.732	34.66
255.962	55.14
256.192	-63.64
256.421	24.42
256.651	-28.83
256.881	-32.93
257.111	14.18
257.341	14.18
257.57	5.99
257.8	12.13
258.03	8.03
258.259	-8.35
258.489	-16.54
258.719	-24.73
258.948	5.99
259.178	38.75
259.407	36.71
259.637	40.8
259.866	-45.21
260.096	32.61
260.325	-18.59
260.555	-28.83
260.784	48.99
261.013	14.18
261.243	-51.36
261.472	16.23
261.701	-10.4
261.931	42.85
262.16	59.23
262.389	18.27
262.618	22.37
262.847	-14.49
263.076	-49.31
263.305	-0.16
263.535	-28.83
263.764	-43.16
263.993	36.71
264.222	22.37
264.451	-10.4
264.679	-24.73
264.908	-12.45
265.137	14.18
265.366	48.99
265.595	46.95
265.824	3.94
266.053	-2.21
266.281	-49.31
266.51	-37.02
266.739	55.14
266.967	-6.3
267.196	22.37
267.425	-28.83
267.653	-10.4
267.882	-39.07
268.11	71.52
268.339	73.57
268.567	-14.49
268.796	-14.49
269.024	67.43
269.253	-30.88
269.481	-30.88
269.709	-26.78
269.938	-32.93
270.166	-34.97
270.394	34.66
270.623	67.43
270.851	67.43
271.079	22.37
271.307	-43.16
271.535	-92.32
271.764	20.32
271.992	28.51
272.22	-43.16
272.448	24.42
272.676	-16.54
272.904	-59.55
273.132	30.56
273.36	-18.59
273.588	18.27
273.816	-18.59
274.043	-2.21
274.271	-92.32
274.499	-6.3
274.727	-0.16
274.955	-6.3
275.182	28.51
275.41	96.1
275.638	-30.88
275.866	-80.03
276.093	87.91
276.321	-26.78
276.548	-51.36
276.776	-63.64
277.003	46.95
277.231	26.47
277.458	-55.45
277.686	-41.12
277.913	-41.12
278.141	-34.97
278.368	18.27
278.595	34.66
278.823	30.56
279.05	108.38
279.277	-24.73
279.505	-24.73
279.732	-10.4
279.959	-47.26
280.186	34.66
280.413	-12.45
280.641	-49.31
280.868	57.19
281.095	-34.97
281.322	-41.12
281.549	-2.21
281.776	-80.03
282.003	-10.4
282.23	1.89
282.457	-32.93
282.683	14.18
282.91	16.23
283.137	-30.88
283.364	12.13
283.591	-65.69
283.818	24.42
284.044	-65.69
284.271	14.18
284.498	14.18
284.724	5.99
284.951	-92.32
285.178	1.89
285.404	-8.35
285.631	-51.36
285.857	-14.49
286.084	34.66
286.31	18.27
286.537	-57.5
286.763	-26.78
286.99	-41.12
287.216	-14.49
287.442	-47.26
287.669	-16.54
287.895	42.85
288.121	-24.73
288.347	24.42
288.574	-2.21
288.8	-0.16
289.026	30.56
289.252	81.76
289.478	26.47
289.704	16.23
289.931	32.61
290.157	26.47
290.383	-57.5
290.609	-10.4
290.835	-43.16
291.06	-55.45
291.286	14.18
291.512	16.23
291.738	63.33
291.964	-22.69
292.19	30.56
292.416	-6.3
292.641	36.71
292.867	-47.26
293.093	24.42
293.319	1.89
293.544	26.47
293.77	-0.16
293.995	14.18
294.221	-34.97
294.447	-49.31
294.672	1.89
294.898	-2.21
295.123	-30.88
295.349	14.18
295.574	-26.78
295.799	-32.93
296.025	-30.88
296.25	38.75
296.476	-18.59
296.701	55.14
296.926	8.03
297.151	-4.25
297.377	57.19
297.602	-8.35
297.827	16.23
298.052	-34.97
298.277	-22.69
298.502	24.42
298.727	5.99
298.953	28.51
299.178	-8.35
299.403	-32.93
299.628	-63.64
299.852	-14.49
300.077	32.61
300.302	5.99
300.527	-34.97
300.752	-43.16
300.977	5.99
301.202	77.67
301.426	12.13
301.651	-43.16
301.876	32.61
302.101	-0.16
302.325	8.03
302.55	-16.54
302.775	14.18
302.999	-63.64
303.224	-2.21
303.448	-18.59
303.673	40.8
303.897	-18.59
304.122	55.14
304.346	-16.54
304.571	-57.5
304.795	-18.59
305.019	-59.55
305.244	-12.45
305.468	30.56
305.692	-22.69
305.917	26.47
306.141	-37.02
306.365	-49.31
306.589	118.62
306.813	-73.88
307.038	30.56
307.262	-12.45
307.486	-26.78
307.71	-18.59
307.934	-16.54
308.158	-88.22
308.382	-37.02
308.606	40.8
308.83	67.43
309.054	42.85
309.278	-16.54
309.502	26.47
309.725	14.18
309.949	24.42
310.173	16.23
310.397	12.13
310.62	-51.36
310.844	-26.78
311.068	-96.41
311.292	-22.69
311.515	16.23
311.739	8.03
311.962	-24.73
312.186	-10.4
312.41	-26.78
312.633	18.27
312.857	-67.74
313.08	30.56
313.303	-39.07
313.527	1.89
313.75	-41.12
313.974	42.85
314.197	-16.54
314.42	-8.35
314.644	-0.16
314.867	28.51
315.09	-0.16
315.313	-8.35
315.536	-43.16
315.76	20.32
315.983	-8.35
316.206	55.14
316.429	16.23
316.652	-6.3
316.875	-75.93
317.098	18.27
317.321	-67.74
317.544	24.42
317.767	79.71
317.99	-41.12
318.213	-6.3
318.436	-43.16
318.658	5.99
318.881	26.47
319.104	-32.93
319.327	-6.3
319.55	57.19
319.772	71.52
319.995	-10.4
320.218	63.33
320.44	-2.21
320.663	67.43
320.885	-4.25
321.108	-4.25
321.331	-10.4
321.553	-51.36
321.776	-51.36
321.998	-30.88
322.22	26.47
322.443	30.56
322.665	1.89
322.888	14.18
323.11	22.37
323.332	-2.21
323.555	46.95
323.777	-16.54
323.999	38.75
324.221	32.61
324.443	40.8
324.666	-4.25
324.888	1.89
325.11	-12.45
325.332	22.37
325.554	-8.35
325.776	-10.4
325.998	38.75
326.22	24.42
326.442	14.18
326.664	-10.4
326.886	8.03
327.108	5.99
327.33	92
327.551	-18.59
327.773	-18.59
327.995	-4.25
328.217	-8.35
328.439	-32.93
328.66	-55.45
328.882	-24.73
329.104	10.08
329.325	-8.35
329.547	22.37
329.769	-53.4
329.99	75.62
330.212	8.03
330.433	20.32
330.655	1.89
330.876	-16.54
331.098	-34.97
331.319	14.18
331.54	14.18
331.762	-8.35
331.983	-67.74
332.204	-10.4
332.426	24.42
332.647	16.23
332.868	5.99
333.089	30.56
333.311	28.51
333.532	-18.59
333.753	-63.64
333.974	-10.4
334.195	-22.69
334.416	26.47
334.637	-34.97
334.858	22.37
335.079	-6.3
335.3	57.19
335.521	59.23
335.742	79.71
335.963	69.47
336.184	-26.78
336.405	-92.32
336.626	-22.69
336.846	-39.07
337.067	-0.16
337.288	-2.21
337.509	1.89
337.729	34.66
337.95	-2.21
338.171	-18.59
338.391	-26.78
338.612	55.14
338.833	46.95
339.053	-14.49
339.274	-26.78
339.494	-39.07
339.715	5.99
339.935	-10.4
340.156	-4.25
340.376	-10.4
340.596	46.95
340.817	-59.55
341.037	48.99
341.257	-116.89
341.478	-39.07
341.698	-0.16
341.918	1.89
342.138	26.47
342.359	-24.73
342.579	-22.69
342.799	22.37
343.019	40.8
343.239	1.89
343.459	-57.5
343.679	22.37
343.899	5.99
344.119	16.23
344.339	-2.21
344.559	38.75
344.779	-34.97
344.999	-47.26
345.219	18.27
345.439	-24.73
345.658	10.08
345.878	-28.83
346.098	24.42
346.318	-26.78
346.537	-6.3
346.757	14.18
346.977	57.19
347.196	-6.3
347.416	38.75
347.636	57.19
347.855	5.99
348.075	-30.88
348.294	-18.59
348.514	1.89
348.733	22.37
348.953	-20.64
349.172	53.09
349.392	22.37
349.611	-51.36
349.83	-34.97
350.05	-67.74
350.269	16.23
350.488	-137.37
350.707	-16.54
350.927	32.61
351.146	-0.16
351.365	42.85
351.584	118.62
351.803	-65.69
352.023	44.9
352.242	18.27
352.461	-20.64
352.68	-55.45
352.899	14.18
353.118	65.38
353.337	75.62
353.556	-18.59
353.775	-14.49
353.993	-59.55
354.212	-30.88
354.431	18.27
354.65	16.23
354.869	-24.73
355.088	3.94
355.306	-53.4
355.525	-18.59
355.744	-59.55
355.962	-47.26
356.181	-14.49
356.4	46.95
356.618	-32.93
356.837	-2.21
357.055	-100.51
357.274	79.71
357.492	-10.4
357.711	28.51
357.929	18.27
358.148	51.04
358.366	-67.74
358.585	34.66
358.803	5.99
359.021	-41.12
359.24	-26.78
359.458	83.81
359.676	-43.16
359.894	-37.02
360.113	-43.16
360.331	-55.45
360.549	10.08
360.767	10.08
360.985	-10.4
361.203	3.94
361.421	-2.21
361.639	-28.83
361.857	-2.21
362.075	42.85
362.293	46.95
362.511	-10.4
362.729	-2.21
362.947	16.23
363.165	-4.25
363.383	-4.25
363.601	-10.4
363.819	10.08
364.036	-57.5
364.254	-24.73
364.472	22.37
364.689	-18.59
364.907	22.37
365.125	14.18
365.342	-28.83
365.56	16.23
365.778	65.38
365.995	10.08
366.213	-51.36
366.43	5.99
366.648	40.8
366.865	30.56
367.083	53.09
367.3	57.19
367.517	57.19
367.735	-88.22
367.952	26.47
368.17	14.18
368.387	-16.54
368.604	5.99
368.821	-26.78
369.039	-14.49
369.256	-22.69
369.473	-82.08
369.69	-2.21
369.907	30.56
370.124	-2.21
370.341	18.27
370.558	48.99
370.776	-34.97
370.993	5.99
371.21	-106.65
371.426	-16.54
371.643	-20.64
371.86	18.27
372.077	-73.88
372.294	-51.36
372.511	5.99
372.728	20.32
372.945	24.42
373.161	34.66
373.378	16.23
373.595	30.56
373.811	-6.3
374.028	-20.64
374.245	18.27
374.461	-63.64
374.678	83.81
374.895	22.37
375.111	48.99
375.328	-69.79
375.544	-22.69
375.761	55.14
375.977	-37.02
376.194	-18.59
376.41	-16.54
376.626	-75.93
376.843	-24.73
377.059	18.27
377.275	-82.08
377.492	-2.21
377.708	-10.4
377.924	-0.16
378.14	-45.21
378.357	-45.21
378.573	5.99
378.789	10.08
379.005	22.37
379.221	-2.21
379.437	1.89
379.653	16.23
379.869	55.14
380.085	30.56
380.301	-45.21
380.517	83.81
380.733	-75.93
380.949	-51.36
381.165	-16.54
381.381	-22.69
381.597	-67.74
381.813	10.08
382.028	40.8
382.244	18.27
382.46	-16.54
382.676	67.43
382.891	5.99
383.107	-43.16
383.323	92
383.538	-39.07
383.754	18.27
383.969	24.42
384.185	-8.35
384.4	14.18
384.616	-2.21
384.831	-34.97
385.047	-6.3
385.262	-43.16
385.478	-26.78
385.693	-55.45
385.909	-24.73
386.124	32.61
386.339	-28.83
386.554	-10.4
386.77	-34.97
386.985	12.13
387.2	-57.5
387.415	55.14
387.631	8.03
387.846	63.33
388.061	-22.69
388.276	57.19
388.491	38.75
388.706	-2.21
388.921	-61.6
389.136	10.08
389.351	-2.21
389.566	-34.97
389.781	51.04
389.996	5.99
390.211	22.37
390.426	77.67
390.641	57.19
390.855	5.99
391.07	22.37
391.285	-22.69
391.5	26.47
391.714	75.62
391.929	-59.55
392.144	-32.93
392.358	-30.88
392.573	-30.88
392.788	5.99
393.002	-14.49
393.217	14.18
393.431	-10.4
393.646	-39.07
393.86	1.89
394.075	71.52
394.289	14.18
394.504	-86.17
394.718	32.61
394.933	3.94
395.147	38.75
395.361	5.99
395.576	-51.36
395.79	20.32
396.004	10.08
396.218	34.66
396.432	-16.54
396.647	30.56
396.861	-0.16
397.075	38.75
397.289	1.89
397.503	-53.4
397.717	-47.26
397.931	-26.78
398.145	-55.45
398.359	5.99
398.573	18.27
398.787	-12.45
399.001	10.08
399.215	-28.83
399.429	-18.59
399.643	-2.21
399.857	-2.21
400.07	24.42
400.284	71.52
400.498	-14.49
400.712	-18.59
400.925	-0.16
401.139	-41.12
401.353	5.99
401.566	-51.36
401.78	8.03
401.994	-10.4
402.207	32.61
402.421	-57.5
402.634	14.18
402.848	-2.21
403.061	34.66
403.275	-67.74
403.488	-75.93
403.702	-18.59
403.915	-45.21
404.128	-92.32
404.342	-14.49
404.555	-57.5
404.768	-30.88
404.982	-57.5
405.195	73.57
405.408	-26.78
405.621	-10.4
405.835	-43.16
406.048	14.18
406.261	71.52
406.474	-0.16
406.687	24.42
406.9	-43.16
407.113	-34.97
407.326	-57.5
407.539	67.43
407.752	30.56
407.965	14.18
408.178	-8.35
408.391	-34.97
408.604	-8.35
408.817	32.61
409.029	-51.36
409.242	-8.35
409.455	24.42
409.668	-2.21
409.881	-59.55
410.093	16.23
410.306	5.99
410.519	-26.78
410.731	-34.97
410.944	-59.55
411.157	-0.16
411.369	38.75
411.582	-34.97
411.794	83.81
412.007	-10.4
412.219	14.18
412.432	-77.98
412.644	14.18
412.857	34.66
413.069	-16.54
413.281	-18.59
413.494	26.47
413.706	8.03
413.918	-61.6
414.131	40.8
414.343	5.99
414.555	16.23
414.767	-22.69
414.979	-18.59
415.192	-8.35
415.404	85.86
415.616	5.99
415.828	8.03
416.04	-24.73
416.252	1.89
416.464	16.23
416.676	14.18
416.888	-63.64
417.1	32.61
417.312	-43.16
417.524	-32.93
417.736	-80.03
417.948	10.08
418.159	-30.88
418.371	38.75
418.583	-28.83
418.795	-51.36
419.007	-2.21
419.218	22.37
419.43	46.95
419.642	30.56
419.853	-67.74
420.065	-12.45
420.276	5.99
420.488	67.43
420.7	5.99
420.911	-63.64
421.123	-34.97
421.334	-16.54
421.546	-43.16
421.757	-26.78
421.969	20.32
422.18	-26.78
422.391	-26.78
422.603	-43.16
422.814	83.81
423.025	38.75
423.237	-57.5
423.448	-49.31
423.659	22.37
423.87	3.94
424.082	-2.21
424.293	-59.55
424.504	-18.59
424.715	1.89
424.926	10.08
425.137	-28.83
425.348	75.62
425.559	-20.64
425.77	79.71
425.981	-67.74
426.192	-20.64
426.403	26.47
426.614	24.42
426.825	38.75
427.036	-43.16
427.247	-39.07
427.458	65.38
427.668	-8.35
427.879	1.89
428.09	14.18
428.301	-37.02
428.511	75.62
428.722	18.27
428.933	14.18
429.143	-51.36
429.354	38.75
429.565	-51.36
429.775	-0.16
429.986	-51.36
430.196	-24.73
430.407	22.37
430.617	-22.69
430.828	28.51
431.038	48.99
431.249	14.18
431.459	5.99
431.669	26.47
431.88	-32.93
432.09	22.37
432.3	16.23
432.511	38.75
432.721	10.08
432.931	32.61
433.141	-59.55
433.351	-67.74
433.562	10.08
433.772	-39.07
433.982	1.89
434.192	8.03
434.402	-20.64
434.612	38.75
434.822	-43.16
435.032	-43.16
435.242	-24.73
435.452	-22.69
435.662	-39.07
435.872	79.71
436.082	8.03
436.292	-6.3
436.502	-18.59
436.711	-67.74
436.921	22.37
437.131	-90.27
437.341	-14.49
437.551	1.89
437.76	-2.21
437.97	-80.03
438.18	55.14
438.389	14.18
438.599	18.27
438.808	38.75
439.018	34.66
439.228	24.42
439.437	-57.5
439.647	26.47
439.856	-12.45
440.066	32.61
440.275	-8.35
440.484	-57.5
440.694	22.37
440.903	-69.79
441.113	-49.31
441.322	-39.07
441.531	-34.97
441.741	-26.78
441.95	-2.21
442.159	-10.4
442.368	16.23
442.577	-59.55
442.787	-10.4
442.996	38.75
443.205	-10.4
443.414	-16.54
443.623	79.71
443.832	-18.59
444.041	-2.21
444.25	-4.25
444.459	40.8
444.668	8.03
444.877	-34.97
445.086	14.18
445.295	-14.49
445.504	-94.36
445.713	-43.16
445.922	-18.59
446.13	-43.16
446.339	34.66
446.548	42.85
446.757	-6.3
446.965	-16.54
447.174	-18.59
447.383	-67.74
447.591	87.91
447.8	-51.36
448.009	8.03
448.217	-39.07
448.426	-10.4
448.634	-26.78
448.843	-30.88
449.051	-75.93
449.26	-4.25
449.468	48.99
449.677	18.27
449.885	-14.49
450.093	32.61
450.302	18.27
450.51	8.03
450.719	5.99
450.927	-65.69
451.135	-10.4
451.343	-39.07
451.552	20.32
451.76	-2.21
451.968	-2.21
452.176	-41.12
452.384	-2.21
452.592	20.32
452.8	48.99
453.009	34.66
453.217	8.03
453.425	-37.02
453.633	-43.16
453.841	38.75
454.049	48.99
454.257	14.18
454.464	34.66
454.672	1.89
454.88	-77.98
455.088	-96.41
455.296	-0.16
455.504	-49.31
455.711	38.75
455.919	-53.4
456.127	-18.59
456.335	22.37
456.542	-10.4
456.75	-18.59
456.958	24.42
457.165	-37.02
457.373	51.04
457.581	-59.55
457.788	32.61
457.996	-30.88
458.203	-20.64
458.411	3.94
458.618	5.99
458.826	-63.64
459.033	22.37
459.24	-41.12
459.448	71.52
459.655	28.51
459.863	55.14
460.07	-67.74
460.277	57.19
460.484	14.18
460.692	-28.83
460.899	-39.07
461.106	-98.46
461.313	73.57
461.52	26.47
461.728	28.51
461.935	14.18
462.142	22.37
462.349	-2.21
462.556	20.32
462.763	-65.69
462.97	-18.59
463.177	-6.3
463.384	-63.64
463.591	-2.21
463.798	-82.08
464.005	24.42
464.212	10.08
464.418	26.47
464.625	-61.6
464.832	20.32
465.039	10.08
465.246	3.94
465.452	-63.64
465.659	14.18
465.866	-47.26
466.072	-39.07
466.279	16.23
466.486	30.56
466.692	-10.4
466.899	-47.26
467.105	-26.78
467.312	-2.21
467.519	-6.3
467.725	55.14
467.931	-18.59
468.138	34.66
468.344	-34.97
468.551	61.28
468.757	-22.69
468.964	12.13
469.17	-26.78
469.376	24.42
469.583	-45.21
469.789	-14.49
469.995	-16.54
470.201	-14.49
470.408	-18.59
470.614	24.42
470.82	-6.3
471.026	1.89
471.232	26.47
471.438	22.37
471.644	-18.59
471.85	46.95
472.056	5.99
472.262	-43.16
472.468	-30.88
472.674	38.75
472.88	-57.5
473.086	-24.73
473.292	38.75
473.498	26.47
473.704	36.71
473.91	-59.55
474.116	53.09
474.321	-0.16
474.527	16.23
474.733	-18.59
474.939	51.04
475.144	-16.54
475.35	-10.4
475.556	-22.69
475.761	5.99
475.967	-32.93
476.173	-0.16
476.378	14.18
476.584	14.18
476.789	14.18
476.995	-67.74
477.2	-6.3
477.406	-6.3
477.611	-10.4
477.817	18.27
478.022	-43.16
478.227	-51.36
478.433	5.99
478.638	14.18
478.843	8.03
479.049	-59.55
479.254	14.18
479.459	-18.59
479.664	30.56
479.87	53.09
480.075	65.38
480.28	-57.5
480.485	-18.59
480.69	-18.59
480.895	22.37
481.1	-39.07
481.306	-73.88
481.511	1.89
481.716	30.56
481.921	-65.69
482.126	-49.31
482.33	-59.55
482.535	-16.54
482.74	30.56
482.945	38.75
483.15	-26.78
483.355	14.18
483.56	-39.07
483.765	77.67
483.969	1.89
484.174	-14.49
484.379	-26.78
484.583	-4.25
484.788	10.08
484.993	-65.69
485.197	26.47
485.402	-10.4
485.607	-51.36
485.811	-47.26
486.016	-24.73
486.22	-30.88
486.425	-34.97
486.629	-51.36
486.834	10.08
487.038	-43.16
487.243	40.8
487.447	14.18
487.652	16.23
487.856	51.04
488.06	-24.73
488.265	-14.49
488.469	51.04
488.673	59.23
488.877	-2.21
489.082	-4.25
489.286	48.99
489.49	-24.73
489.694	79.71
489.898	-16.54
490.102	14.18
490.307	-75.93
490.511	42.85
490.715	20.32
490.919	-100.51
491.123	30.56
491.327	18.27
491.531	104.29
491.735	-2.21
491.939	14.18
492.143	51.04
492.346	8.03
492.55	-43.16
492.754	18.27
492.958	-43.16
493.162	-16.54
493.366	22.37
493.569	-12.45
493.773	-51.36
493.977	42.85
494.18	-34.97
494.384	-108.7
494.588	48.99
494.791	42.85
494.995	51.04
495.199	5.99
495.402	-6.3
495.606	-80.03
495.809	-43.16
496.013	3.94
496.216	51.04
496.42	12.13
496.623	16.23
496.827	79.71
497.03	16.23
497.233	24.42
497.437	-51.36
497.64	-133.28
497.843	-59.55
498.047	-26.78
498.25	-55.45
498.453	-16.54
498.656	-24.73
498.86	-67.74
499.063	-59.55
499.266	-2.21
499.469	42.85
499.672	-20.64
499.875	-39.07
500.078	51.04
500.281	32.61
500.484	-69.79
500.687	-32.93
500.89	28.51
501.093	24.42
501.296	-26.78
501.499	-26.78
501.702	-30.88
501.905	-104.6
502.108	-14.49
502.311	-4.25
502.514	-4.25
502.716	-2.21
502.919	-34.97
503.122	5.99
503.325	-18.59
503.527	42.85
503.73	40.8
503.933	-2.21
504.135	-12.45
504.338	-12.45
504.541	-55.45
504.743	8.03
504.946	22.37
505.148	-49.31
505.351	38.75
505.553	20.32
505.756	-28.83
505.958	-0.16
506.161	14.18
506.363	-43.16
506.565	-0.16
506.768	-41.12
506.97	-18.59
507.172	5.99
507.375	12.13
507.577	-67.74
507.779	-34.97
507.982	-39.07
508.184	-16.54
508.386	-6.3
508.588	-16.54
508.79	-16.54
508.993	-41.12
509.195	-30.88
509.397	-47.26
509.599	-34.97
509.801	-41.12
510.003	-34.97
510.205	24.42
510.407	-24.73
510.609	53.09
510.811	30.56
511.013	-37.02
511.215	40.8
511.417	5.99
511.618	24.42
511.82	-108.7
512.022	-26.78
512.224	14.18
512.426	38.75
512.627	44.9
512.829	18.27
513.031	-45.21
513.233	-18.59
513.434	48.99
513.636	-63.64
513.838	30.56
514.039	16.23
514.241	-43.16
514.442	-39.07
514.644	22.37
514.845	65.38
515.047	-51.36
515.248	51.04
515.45	-14.49
515.651	-10.4
515.853	63.33
516.054	-43.16
516.256	-24.73
516.457	14.18
516.658	-80.03
516.86	-10.4
517.061	40.8
517.262	-28.83
517.463	-77.98
517.665	-26.78
517.866	22.37
518.067	-2.21
518.268	48.99
518.469	38.75
518.67	30.56
518.872	-49.31
519.073	24.42
519.274	32.61
519.475	-0.16
519.676	-16.54
519.877	-43.16
520.078	-10.4
520.279	53.09
520.48	8.03
520.681	36.71
520.881	38.75
521.082	-84.12
521.283	-18.59
521.484	-43.16
521.685	1.89
521.886	-16.54
522.086	10.08
522.287	22.37
522.488	38.75
522.689	63.33
522.889	-0.16
523.09	-12.45
523.291	-32.93
523.491	-12.45
523.692	-59.55
523.892	22.37
524.093	-2.21
524.294	38.75
524.494	-45.21
524.695	1.89
524.895	26.47
525.096	40.8
525.296	38.75
525.496	-10.4
525.697	-71.84
525.897	-14.49
526.098	-43.16
526.298	-18.59
526.498	-10.4
526.699	63.33
526.899	59.23
527.099	-57.5
527.299	-16.54
527.499	63.33
527.7	5.99
527.9	-2.21
528.1	24.42
528.3	-10.4
528.5	8.03
528.7	8.03
528.9	-14.49
529.1	-43.16
529.3	34.66
529.5	-14.49
529.7	-65.69
529.9	-57.5
530.1	10.08
530.3	24.42
530.5	36.71
530.7	22.37
530.9	5.99
531.1	-8.35
531.3	14.18
531.499	24.42
531.699	-10.4
531.899	18.27
532.099	-47.26
532.298	-10.4
532.498	-39.07
532.698	18.27
532.897	36.71
533.097	-32.93
533.297	24.42
533.496	1.89
533.696	5.99
533.895	14.18
534.095	26.47
534.294	-67.74
534.494	-10.4
534.693	-49.31
534.893	16.23
535.092	-47.26
535.292	-22.69
535.491	-67.74
535.69	-2.21
535.89	-10.4
536.089	32.61
536.288	-6.3
536.488	5.99
536.687	46.95
536.886	-2.21
537.085	-51.36
537.285	1.89
537.484	28.51
537.683	55.14
537.882	5.99
538.081	5.99
538.28	-39.07
538.479	-37.02
538.678	-30.88
538.877	-20.64
539.076	-18.59
539.275	-2.21
539.474	36.71
539.673	-41.12
539.872	10.08
540.071	-90.27
540.27	65.38
540.469	18.27
540.668	-71.84
540.867	-14.49
541.065	-10.4
541.264	-0.16
541.463	-39.07
541.662	-26.78
541.861	-26.78
542.059	-43.16
542.258	-8.35
542.457	1.89
542.655	10.08
542.854	46.95
543.052	-0.16
543.251	-61.6
543.45	65.38
543.648	1.89
543.847	-2.21
544.045	12.13
544.244	14.18
544.442	-0.16
544.641	14.18
544.839	42.85
545.037	-47.26
545.236	-51.36
545.434	-26.78
545.632	16.23
545.831	73.57
546.029	-37.02
546.227	71.52
546.426	-8.35
546.624	22.37
546.822	-4.25
547.02	-18.59
547.218	-8.35
547.417	-37.02
547.615	-2.21
547.813	-18.59
548.011	38.75
548.209	-43.16
548.407	-43.16
548.605	16.23
548.803	-0.16
549.001	-34.97
549.199	-30.88
549.397	20.32
549.595	-24.73
549.793	1.89
549.991	14.18
550.189	-63.64
550.387	-24.73
550.584	46.95
550.782	22.37
550.98	10.08
551.178	-34.97
551.376	-8.35
551.573	-2.21
551.771	8.03
551.969	14.18
552.166	-71.84
552.364	3.94
552.562	-63.64
552.759	14.18
552.957	89.95
553.154	22.37
553.352	-0.16
553.55	-0.16
553.747	-43.16
553.945	38.75
554.142	8.03
554.339	14.18
554.537	26.47
554.734	-10.4
554.932	24.42
555.129	22.37
555.326	-10.4
555.524	22.37
555.721	1.89
555.918	63.33
556.116	24.42
556.313	-34.97
556.51	14.18
556.707	46.95
556.904	12.13
557.102	-10.4
557.299	1.89
557.496	-43.16
557.693	-8.35
557.89	-51.36
558.087	8.03
558.284	46.95
558.481	42.85
558.678	10.08
558.875	-30.88
559.072	-6.3
559.269	5.99
559.466	38.75
559.663	10.08
559.86	18.27
560.057	-2.21
560.254	-43.16
560.45	-6.3
560.647	-47.26
560.844	8.03
561.041	5.99
561.237	-18.59
561.434	46.95
561.631	-6.3
561.828	-75.93
562.024	-22.69
562.221	48.99
562.418	14.18
562.614	-67.74
562.811	12.13
563.007	10.08
563.204	-30.88
563.4	38.75
563.597	22.37
563.793	-4.25
563.99	-10.4
564.186	30.56
564.383	1.89
564.579	-67.74
564.775	-39.07
564.972	-18.59
565.168	28.51
565.365	-41.12
565.561	32.61
565.757	-65.69
565.953	65.38
566.15	42.85
566.346	-75.93
566.542	14.18
566.738	-2.21
566.934	-18.59
567.131	-63.64
567.327	-6.3
567.523	30.56
567.719	3.94
567.915	14.18
568.111	-30.88
568.307	-2.21
568.503	-34.97
568.699	-18.59
568.895	26.47
569.091	18.27
569.287	-16.54
569.483	-49.31
569.679	5.99
569.875	14.18
570.07	18.27
570.266	34.66
570.462	-49.31
570.658	8.03
570.854	3.94
571.049	55.14
571.245	-39.07
571.441	18.27
571.636	-28.83
571.832	-59.55
572.028	-18.59
572.223	42.85
572.419	10.08
572.615	-4.25
572.81	-12.45
573.006	24.42
573.201	-24.73
573.397	5.99
573.592	-28.83
573.788	-22.69
573.983	53.09
574.179	44.9
574.374	-39.07
574.569	5.99
574.765	79.71
574.96	38.75
575.156	-67.74
575.351	-45.21
575.546	20.32
575.741	-39.07
575.937	22.37
576.132	57.19
576.327	32.61
576.522	-8.35
576.718	-8.35
576.913	8.03
577.108	-45.21
577.303	-18.59
577.498	-0.16
577.693	3.94
577.888	51.04
578.083	-43.16
578.278	-67.74
578.473	-2.21
578.668	-12.45
578.863	-57.5
579.058	-39.07
579.253	26.47
579.448	-6.3
579.643	-10.4
579.838	22.37
580.033	-18.59
580.227	-34.97
580.422	5.99
580.617	92
580.812	28.51
581.006	-26.78
581.201	-55.45
581.396	34.66
581.591	46.95
581.785	-14.49
581.98	1.89
582.175	44.9
582.369	38.75
582.564	46.95
582.758	-10.4
582.953	16.23
583.147	-55.45
583.342	-2.21
583.536	40.8
583.731	10.08
583.925	24.42
584.12	-75.93
584.314	-26.78
584.509	-2.21
584.703	-26.78
584.897	14.18
585.092	67.43
585.286	-41.12
585.48	-10.4
585.674	-37.02
585.869	40.8
586.063	-92.32
586.257	12.13
586.451	-32.93
586.646	-18.59
586.84	-0.16
587.034	-55.45
587.228	-30.88
587.422	61.28
587.616	16.23
587.81	-51.36
588.004	30.56
588.198	12.13
588.392	5.99
588.586	1.89
588.78	-22.69
588.974	24.42
589.168	12.13
589.362	104.29
589.556	44.9
589.75	-51.36
589.944	-4.25
590.137	-14.49
590.331	-2.21
590.525	46.95
590.719	-12.45
590.913	-10.4
591.106	87.91
591.3	-18.59
591.494	-26.78
591.687	46.95
591.881	-26.78
592.075	-2.21
592.268	-4.25
592.462	-24.73
592.655	-22.69
592.849	-47.26
593.043	-26.78
593.236	14.18
593.43	-6.3
593.623	-18.59
593.817	10.08
594.01	-32.93
594.203	14.18
594.397	-47.26
594.59	18.27
594.784	-22.69
594.977	-59.55
595.17	-4.25
595.364	-16.54
595.557	-18.59
595.75	5.99
595.943	30.56
596.137	3.94
596.33	5.99
596.523	51.04
596.716	51.04
596.909	22.37
597.102	-8.35
597.296	34.66
597.489	-26.78
597.682	14.18
597.875	-34.97
598.068	-2.21
598.261	-2.21
598.454	-61.6
598.647	-32.93
598.84	22.37
599.033	38.75
599.226	-55.45
599.419	22.37
599.611	-82.08
599.804	8.03
599.997	-34.97
600.19	-59.55
600.383	-57.5
600.576	1.89
600.768	-20.64
600.961	48.99
601.154	112.48
601.347	53.09
601.539	-0.16
601.732	10.08
601.925	55.14
602.117	-20.64
602.31	59.23
602.502	55.14
602.695	-6.3
602.888	-14.49
603.08	46.95
603.273	24.42
603.465	57.19
603.658	32.61
603.85	26.47
604.043	28.51
604.235	5.99
604.427	-26.78
604.62	73.57
604.812	-10.4
605.004	-34.97
605.197	-2.21
605.389	40.8
605.581	-4.25
605.774	-2.21
605.966	-55.45
606.158	10.08
606.35	-26.78
606.543	-26.78
606.735	-22.69
606.927	-6.3
607.119	40.8
607.311	-18.59
607.503	77.67
607.695	-30.88
607.887	30.56
608.079	14.18
608.271	-71.84
608.463	-6.3
608.655	-12.45
608.847	22.37
609.039	26.47
609.231	-2.21
609.423	-43.16
609.615	-49.31
609.807	51.04
609.999	-26.78
610.191	-10.4
610.382	-10.4
610.574	51.04
610.766	-24.73
610.958	1.89
611.15	22.37
611.341	55.14
611.533	-45.21
611.725	59.23
611.916	-41.12
612.108	30.56
612.3	-28.83
612.491	3.94
612.683	57.19
612.874	69.47
613.066	-32.93
613.257	30.56
613.449	10.08
613.64	3.94
613.832	-37.02
614.023	-32.93
614.215	30.56
614.406	24.42
614.598	57.19
614.789	26.47
614.98	-77.98
615.172	46.95
615.363	-2.21
615.554	-30.88
615.746	-16.54
615.937	-43.16
616.128	-32.93
616.319	65.38
616.511	-2.21
616.702	24.42
616.893	30.56
617.084	26.47
617.275	-16.54
617.466	22.37
617.658	-59.55
617.849	-30.88
618.04	-39.07
618.231	-73.88
618.422	83.81
618.613	26.47
618.804	14.18
618.995	14.18
619.186	-10.4
619.377	-2.21
619.568	-59.55
619.758	-0.16
619.949	-51.36
620.14	34.66
620.331	-10.4
620.522	5.99
620.713	20.32
620.903	-73.88
621.094	-18.59
621.285	-8.35
621.476	-71.84
621.666	-26.78
621.857	-59.55
622.048	-0.16
622.238	-0.16
622.429	-34.97
622.62	10.08
622.81	-2.21
623.001	26.47
623.191	71.52
623.382	63.33
623.572	40.8
623.763	-10.4
623.953	-34.97
624.144	-4.25
624.334	5.99
624.525	-41.12
624.715	-49.31
624.905	-16.54
625.096	-8.35
625.286	34.66
625.477	-57.5
625.667	36.71
625.857	38.75
626.047	22.37
626.238	-26.78
626.428	-2.21
626.618	-18.59
626.808	-4.25
626.999	-51.36
627.189	65.38
627.379	46.95
627.569	42.85
627.759	-28.83
627.949	-39.07
628.139	22.37
628.329	-26.78
628.519	-57.5
628.709	1.89
628.899	42.85
629.089	16.23
629.279	-43.16
629.469	5.99
629.659	40.8
629.849	-26.78
630.039	46.95
630.229	-51.36
630.419	-0.16
630.609	-4.25
630.798	79.71
630.988	-2.21
631.178	40.8
631.368	63.33
631.557	5.99
631.747	30.56
631.937	32.61
632.127	73.57
632.316	-59.55
632.506	18.27
632.696	18.27
632.885	3.94
633.075	3.94
633.264	16.23
633.454	30.56
633.643	-49.31
633.833	-43.16
634.022	-75.93
634.212	18.27
634.401	42.85
634.591	-37.02
634.78	-43.16
634.97	16.23
635.159	22.37
635.348	-63.64
635.538	-14.49
635.727	10.08
635.916	-10.4
636.106	14.18
636.295	-14.49
636.484	38.75
636.674	22.37
636.863	5.99
637.052	-10.4
637.241	46.95
637.43	18.27
637.619	5.99
637.809	20.32
637.998	-16.54
638.187	-26.78
638.376	48.99
638.565	-77.98
638.754	-49.31
638.943	-10.4
639.132	12.13
639.321	-2.21
639.51	-28.83
639.699	-45.21
639.888	-55.45
640.077	-0.16
640.266	24.42
640.455	-26.78
640.643	-18.59
640.832	-34.97
641.021	1.89
641.21	-26.78
641.399	-32.93
641.587	5.99
641.776	40.8
641.965	5.99
642.154	-0.16
642.342	5.99
642.531	16.23
642.72	-43.16
642.908	16.23
643.097	-32.93
643.286	-6.3
643.474	-55.45
643.663	8.03
643.851	-34.97
644.04	-14.49
644.228	1.89
644.417	18.27
644.605	-28.83
644.794	8.03
644.982	-47.26
645.171	-73.88
645.359	22.37
645.547	1.89
645.736	30.56
645.924	-12.45
646.112	-22.69
646.301	5.99
646.489	-6.3
646.677	34.66
646.866	-16.54
647.054	16.23
647.242	-30.88
647.43	42.85
647.618	-18.59
647.807	-14.49
647.995	-37.02
648.183	-65.69
648.371	-22.69
648.559	79.71
648.747	28.51
648.935	5.99
649.123	3.94
649.311	-43.16
649.499	-6.3
649.687	79.71
649.875	-22.69
650.063	-45.21
650.251	46.95
650.439	-47.26
650.627	42.85
650.815	26.47
651.003	18.27
651.191	-4.25
651.378	-57.5
651.566	38.75
651.754	-0.16
651.942	46.95
652.13	-10.4
652.317	-20.64
652.505	32.61
652.693	-2.21
652.88	-34.97
653.068	-63.64
653.256	14.18
653.443	34.66
653.631	-47.26
653.819	-2.21
654.006	10.08
654.194	34.66
654.381	-22.69
654.569	36.71
654.756	10.08
654.944	-2.21
655.131	16.23
655.319	-26.78
655.506	30.56
655.693	-51.36
655.881	-43.16
656.068	-49.31
656.256	42.85
656.443	-41.12
656.63	42.85
656.818	10.08
657.005	-26.78
657.192	-20.64
657.379	48.99
657.567	59.23
657.754	-43.16
657.941	59.23
658.128	-14.49
658.315	48.99
658.502	16.23
658.69	1.89
658.877	46.95
659.064	-49.31
659.251	55.14
659.438	53.09
659.625	38.75
659.812	-10.4
659.999	-41.12
660.186	8.03
660.373	-67.74
660.56	-20.64
660.747	8.03
660.934	-30.88
661.121	-26.78
661.308	-8.35
661.494	30.56
661.681	5.99
661.868	46.95
662.055	28.51
662.242	-10.4
662.428	-75.93
662.615	-55.45
662.802	-47.26
662.989	22.37
663.175	14.18
663.362	-30.88
663.549	22.37
663.735	-18.59
663.922	22.37
664.109	-16.54
664.295	34.66
664.482	-2.21
664.668	30.56
664.855	5.99
665.041	-14.49
665.228	-10.4
665.414	8.03
665.601	-26.78
665.787	22.37
665.974	-34.97
666.16	20.32
666.347	-51.36
666.533	3.94
666.719	1.89
666.906	-26.78
667.092	14.18
667.278	-26.78
667.465	-39.07
667.651	-2.21
667.837	5.99
668.023	51.04
668.21	22.37
668.396	-22.69
668.582	-20.64
668.768	-28.83
668.954	-67.74
669.14	20.32
669.327	-6.3
669.513	-34.97
669.699	20.32
669.885	1.89
670.071	5.99
670.257	42.85
670.443	-8.35
670.629	-55.45
670.815	-18.59
671.001	-24.73
671.187	-45.21
671.373	22.37
671.559	-28.83
671.744	30.56
671.93	-16.54
672.116	-32.93
672.302	-6.3
672.488	-10.4
672.674	-20.64
672.859	-16.54
673.045	5.99
673.231	-26.78
673.417	-32.93
673.602	5.99
673.788	-51.36
673.974	3.94
674.159	14.18
674.345	1.89
674.531	22.37
674.716	-0.16
674.902	-26.78
675.087	-55.45
675.273	-22.69
675.459	26.47
675.644	14.18
675.83	-59.55
676.015	-18.59
676.2	-43.16
676.386	18.27
676.571	-14.49
676.757	-2.21
676.942	-51.36
677.128	-49.31
677.313	-26.78
677.498	-8.35
677.684	16.23
677.869	-6.3
678.054	-26.78
678.24	28.51
678.425	-49.31
678.61	-71.84
678.795	-51.36
678.98	-30.88
679.166	-14.49
679.351	-51.36
679.536	10.08
679.721	57.19
679.906	-82.08
680.091	-6.3
680.276	-41.12
680.461	-82.08
680.647	8.03
680.832	10.08
681.017	10.08
681.202	-18.59
681.387	38.75
681.572	24.42
681.756	1.89
681.941	18.27
682.126	5.99
682.311	16.23
682.496	16.23
682.681	-0.16
682.866	-41.12
683.051	-2.21
683.235	-39.07
683.42	-6.3
683.605	36.71
683.79	22.37
683.974	-18.59
684.159	-26.78
684.344	-22.69
684.529	-24.73
684.713	30.56
684.898	-2.21
685.083	-51.36
685.267	-16.54
685.452	30.56
685.636	-8.35
685.821	-16.54
686.005	26.47
686.19	40.8
686.375	-80.03
686.559	-51.36
686.744	-57.5
686.928	48.99
687.112	10.08
687.297	-100.51
687.481	-6.3
687.666	-22.69
687.85	-18.59
688.034	8.03
688.219	32.61
688.403	-26.78
688.587	-34.97
688.772	-22.69
688.956	-26.78
689.14	18.27
689.324	-47.26
689.509	-41.12
689.693	-67.74
689.877	-43.16
690.061	-6.3
690.245	34.66
690.43	-30.88
690.614	-16.54
690.798	18.27
690.982	-22.69
691.166	-10.4
691.35	-47.26
691.534	-34.97
691.718	20.32
691.902	-30.88
692.086	-47.26
692.27	-14.49
692.454	-10.4
692.638	-6.3
692.822	5.99
693.006	-47.26
693.19	94.05
693.373	-2.21
693.557	-67.74
693.741	-65.69
693.925	16.23
694.109	30.56
694.293	-2.21
694.476	16.23
694.66	22.37
694.844	-155.8
695.027	-18.59
695.211	-49.31
695.395	-4.25
695.578	-10.4
695.762	16.23
695.946	10.08
696.129	14.18
696.313	46.95
696.497	18.27
696.68	-18.59
696.864	-30.88
697.047	-39.07
697.231	8.03
697.414	-14.49
697.598	71.52
697.781	16.23
697.965	-32.93
698.148	22.37
698.331	-18.59
698.515	-73.88
698.698	14.18
698.881	-39.07
699.065	24.42
699.248	-12.45
699.431	8.03
699.615	-10.4
699.798	-32.93
699.981	112.48
700.165	-34.97
700.348	-8.35
700.531	-28.83
700.714	-18.59
700.897	-69.79
701.08	16.23
701.264	-73.88
701.447	-32.93
701.63	71.52
701.813	-16.54
701.996	24.42
702.179	83.81
702.362	10.08
702.545	38.75
702.728	-2.21
702.911	-34.97
703.094	-67.74
703.277	-43.16
703.46	32.61
703.643	-24.73
703.826	-26.78
704.009	-37.02
704.191	-4.25
704.374	-16.54
704.557	-22.69
704.74	38.75
704.923	-16.54
705.106	-10.4
705.288	79.71
705.471	-20.64
705.654	-8.35
705.837	-10.4
706.019	-18.59
706.202	-4.25
706.385	20.32
706.567	18.27
706.75	-53.4
706.932	12.13
707.115	-47.26
707.298	-18.59
707.48	-34.97
707.663	-30.88
707.845	-18.59
708.028	-43.16
708.21	-18.59
708.393	10.08
708.575	55.14
708.758	-37.02
708.94	-0.16
709.123	-26.78
709.305	-65.69
709.487	1.89
709.67	38.75
709.852	5.99
710.034	-12.45
710.217	-84.12
710.399	-34.97
710.581	14.18
710.764	-14.49
710.946	40.8
711.128	-32.93
711.31	-10.4
711.492	-16.54
711.675	-24.73
711.857	46.95
712.039	73.57
712.221	-26.78
712.403	-26.78
712.585	36.71
712.767	-14.49
712.949	-65.69
713.131	-57.5
713.314	-2.21
713.496	40.8
713.678	-18.59
713.86	-8.35
714.041	-75.93
714.223	-43.16
714.405	-59.55
714.587	-47.26
714.769	-18.59
714.951	42.85
715.133	-32.93
715.315	-63.64
715.497	26.47
715.678	59.23
715.86	46.95
716.042	22.37
716.224	55.14
716.406	-43.16
716.587	42.85
716.769	59.23
716.951	-20.64
717.132	22.37
717.314	40.8
717.496	-39.07
717.677	-75.93
717.859	-75.93
718.041	71.52
718.222	-51.36
718.404	-51.36
718.585	14.18
718.767	18.27
718.948	3.94
719.13	-55.45
719.311	-47.26
719.493	55.14
719.674	-34.97
719.856	28.51
720.037	14.18
720.219	22.37
720.4	83.81
720.581	-47.26
720.763	-82.08
720.944	32.61
721.125	-22.69
721.307	3.94
721.488	55.14
721.669	-41.12
721.85	-16.54
722.032	-4.25
722.213	12.13
722.394	-71.84
722.575	-26.78
722.756	16.23
722.938	-75.93
723.119	46.95
723.3	-24.73
723.481	-32.93
723.662	-2.21
723.843	-0.16
724.024	8.03
724.205	24.42
724.386	-2.21
724.567	-39.07
724.748	-41.12
724.929	24.42
725.11	-6.3
725.291	14.18
725.472	-22.69
725.653	-24.73
725.834	-30.88
726.015	32.61
726.196	-57.5
726.377	55.14
726.557	16.23
726.738	-6.3
726.919	-32.93
727.1	57.19
727.281	26.47
727.461	-43.16
727.642	-63.64
727.823	1.89
728.004	10.08
728.184	42.85
728.365	-26.78
728.546	-10.4
728.726	30.56
728.907	-22.69
729.087	-18.59
729.268	-53.4
729.449	-12.45
729.629	26.47
729.81	-32.93
729.99	-24.73
730.171	-47.26
730.351	-43.16
730.532	-67.74
730.712	16.23
730.893	71.52
731.073	-18.59
731.253	-18.59
731.434	5.99
731.614	-59.55
731.795	-10.4
731.975	-49.31
732.155	-24.73
732.336	-57.5
732.516	63.33
732.696	10.08
732.876	-18.59
733.057	14.18
733.237	44.9
733.417	-34.97
733.597	38.75
733.778	-10.4
733.958	38.75
734.138	-53.4
734.318	-14.49
734.498	12.13
734.678	22.37
734.858	26.47
735.038	30.56
735.218	12.13
735.398	-6.3
735.579	14.18
735.759	-28.83
735.939	5.99
736.119	-0.16
736.298	-22.69
736.478	-43.16
736.658	-8.35
736.838	-16.54
737.018	-2.21
737.198	38.75
737.378	14.18
737.558	22.37
737.738	-75.93
737.917	-34.97
738.097	22.37
738.277	44.9
738.457	-0.16
738.637	18.27
738.816	-8.35
738.996	-84.12
739.176	-43.16
739.355	-57.5
739.535	5.99
739.715	-51.36
739.894	26.47
740.074	42.85
740.254	-22.69
740.433	22.37
740.613	-26.78
740.792	-0.16
740.972	-12.45
741.151	-43.16
741.331	-49.31
741.51	-55.45
741.69	-98.46
741.869	-73.88
742.049	24.42
742.228	10.08
742.408	-10.4
742.587	-26.78
742.766	-0.16
742.946	-10.4
743.125	-43.16
743.305	-41.12
743.484	-8.35
743.663	22.37
743.842	-12.45
744.022	-10.4
744.201	-57.5
744.38	-2.21
744.56	30.56
744.739	-47.26
744.918	-51.36
745.097	-14.49
745.276	-2.21
745.455	5.99
745.635	-20.64
745.814	-16.54
745.993	-26.78
746.172	-39.07
746.351	-26.78
746.53	-14.49
746.709	-26.78
746.888	-10.4
747.067	-0.16
747.246	16.23
747.425	-43.16
747.604	-41.12
747.783	-6.3
747.962	-20.64
748.141	-22.69
748.32	-8.35
748.499	28.51
748.677	-14.49
748.856	-16.54
749.035	5.99
749.214	14.18
749.393	-34.97
749.572	59.23
749.75	30.56
749.929	-82.08
750.108	-26.78
750.287	59.23
750.465	8.03
750.644	-14.49
750.823	26.47
751.001	18.27
751.18	30.56
751.359	1.89
751.537	-16.54
751.716	46.95
751.894	-34.97
752.073	-43.16
752.251	-41.12
752.43	32.61
752.609	-26.78
752.787	30.56
752.966	-14.49
753.144	-10.4
753.322	-8.35
753.501	55.14
753.679	26.47
753.858	26.47
754.036	-63.64
754.215	63.33
754.393	-34.97
754.571	-26.78
754.75	-2.21
754.928	-0.16
755.106	-26.78
755.284	-67.74
755.463	65.38
755.641	-84.12
755.819	44.9
755.997	5.99
756.176	-51.36
756.354	22.37
756.532	-43.16
756.71	71.52
756.888	-2.21
757.066	14.18
757.245	-49.31
757.423	48.99
757.601	-51.36
757.779	-18.59
757.957	-22.69
758.135	-67.74
758.313	-34.97
758.491	-84.12
758.669	10.08
758.847	-10.4
759.025	46.95
759.203	-37.02
759.381	30.56
759.559	14.18
759.737	-10.4
759.915	16.23
760.092	-57.5
760.27	-51.36
760.448	-18.59
760.626	-26.78
760.804	-104.6
760.981	-30.88
761.159	-2.21
761.337	18.27
761.515	-16.54
761.692	-0.16
761.87	18.27
762.048	-18.59
762.226	8.03
762.403	28.51
762.581	-4.25
762.759	14.18
762.936	-22.69
763.114	22.37
763.291	-51.36
763.469	-2.21
763.647	-61.6
763.824	67.43
764.002	-20.64
764.179	-51.36
764.357	14.18
764.534	57.19
764.712	-43.16
764.889	46.95
765.066	-24.73
765.244	-34.97
765.421	18.27
765.599	-8.35
765.776	-6.3
765.953	-51.36
766.131	22.37
766.308	-18.59
766.485	-43.16
766.663	-75.93
766.84	-67.74
767.017	46.95
767.194	-8.35
767.372	-55.45
767.549	24.42
767.726	1.89
767.903	-14.49
768.081	-12.45
768.258	-0.16
768.435	-104.6
768.612	79.71
768.789	3.94
768.966	-0.16
769.143	-32.93
769.32	55.14
769.497	-26.78
769.674	-8.35
769.851	46.95
770.028	-57.5
770.205	-18.59
770.382	34.66
770.559	48.99
770.736	8.03
770.913	18.27
771.09	57.19
771.267	-6.3
771.444	-20.64
771.621	-88.22
771.798	16.23
771.975	-14.49
772.151	30.56
772.328	28.51
772.505	22.37
772.682	5.99
772.859	-6.3
773.035	-16.54
773.212	-43.16
773.389	10.08
773.565	-34.97
773.742	98.14
773.919	46.95
774.096	-22.69
774.272	34.66
774.449	-8.35
774.625	1.89
774.802	-24.73
774.979	30.56
775.155	-88.22
775.332	-2.21
775.508	-16.54
775.685	-2.21
775.861	-2.21
776.038	-34.97
776.214	-75.93
776.391	-41.12
776.567	22.37
776.744	22.37
776.92	-14.49
777.096	8.03
777.273	-43.16
777.449	22.37
777.626	-37.02
777.802	26.47
777.978	40.8
778.155	-14.49
778.331	79.71
778.507	-26.78
778.683	-51.36
778.86	22.37
779.036	32.61
779.212	5.99
779.388	-34.97
779.565	8.03
779.741	-18.59
779.917	38.75
780.093	-32.93
780.269	12.13
780.445	-26.78
780.621	20.32
780.797	-37.02
780.974	-49.31
781.15	20.32
781.326	1.89
781.502	-20.64
781.678	14.18
781.854	-51.36
782.03	38.75
782.206	-34.97
782.382	8.03
782.558	28.51
782.733	5.99
782.909	-26.78
783.085	10.08
783.261	-39.07
783.437	-24.73
783.613	-55.45
783.789	-43.16
783.965	-41.12
784.14	-2.21
784.316	16.23
784.492	18.27
784.668	-10.4
784.843	32.61
785.019	-26.78
785.195	55.14
785.371	-16.54
785.546	42.85
785.722	-0.16
785.898	-14.49
786.073	-69.79
786.249	3.94
786.424	-34.97
786.6	1.89
786.776	-8.35
786.951	-51.36
787.127	-10.4
787.302	-32.93
787.478	38.75
787.653	63.33
787.829	-67.74
788.004	5.99
788.18	-59.55
788.355	-51.36
788.531	40.8
788.706	-26.78
788.881	-16.54
789.057	-125.08
789.232	-51.36
789.408	-26.78
789.583	-59.55
789.758	5.99
789.934	8.03
790.109	-73.88
790.284	-24.73
790.459	24.42
790.635	-14.49
790.81	57.19
790.985	-47.26
791.16	8.03
791.336	12.13
791.511	1.89
791.686	22.37
791.861	40.8
792.036	-28.83
792.211	3.94
792.387	-43.16
792.562	112.48
792.737	20.32
792.912	-0.16
793.087	16.23
793.262	26.47
793.437	-26.78
793.612	14.18
793.787	5.99
793.962	-14.49
794.137	26.47
794.312	128.86
794.487	87.91
794.662	40.8
794.837	24.42
795.011	-26.78
795.186	-14.49
795.361	-8.35
795.536	-24.73
795.711	18.27
795.886	-57.5
796.06	28.51
796.235	-26.78
796.41	42.85
796.585	26.47
796.76	-6.3
796.934	3.94
797.109	-39.07
797.284	-32.93
797.458	-43.16
797.633	-43.16
797.808	46.95
797.982	-0.16
798.157	48.99
798.332	-43.16
798.506	8.03
798.681	14.18
798.855	-18.59
799.03	1.89
799.204	-10.4
799.379	-12.45
799.553	-61.6
799.728	-30.88
799.902	-59.55
800.077	-22.69
800.251	-18.59
800.426	42.85
800.6	-18.59
800.775	-10.4
800.949	18.27
801.123	5.99
801.298	22.37
801.472	-41.12
801.647	-39.07
801.821	14.18
801.995	12.13
802.169	22.37
802.344	-73.88
802.518	-6.3
802.692	8.03
802.867	-34.97
803.041	14.18
803.215	-26.78
803.389	30.56
803.563	5.99
803.737	96.1
803.912	-12.45
804.086	-59.55
804.26	24.42
804.434	-63.64
804.608	16.23
804.782	-43.16
804.956	5.99
805.13	10.08
805.304	24.42
805.478	-0.16
805.652	-104.6
805.826	-34.97
806	-43.16
806.174	-51.36
806.348	22.37
806.522	-22.69
806.696	48.99
806.87	-18.59
807.044	-10.4
807.218	-10.4
807.392	-4.25
807.566	55.14
807.739	-67.74
807.913	40.8
808.087	18.27
808.261	-24.73
808.435	59.23
808.608	14.18
808.782	38.75
808.956	-26.78
809.13	59.23
809.303	-14.49
809.477	-6.3
809.651	-41.12
809.824	5.99
809.998	63.33
810.172	3.94
810.345	-2.21
810.519	-0.16
810.692	-18.59
810.866	-0.16
811.04	1.89
811.213	-2.21
811.387	81.76
811.56	12.13
811.734	32.61
811.907	40.8
812.081	46.95
812.254	-6.3
812.428	14.18
812.601	-22.69
812.774	48.99
812.948	-22.69
813.121	53.09
813.295	67.43
813.468	-34.97
813.641	-12.45
813.815	-22.69
813.988	18.27
814.161	10.08
814.335	79.71
814.508	-28.83
814.681	-26.78
814.854	14.18
815.028	83.81
815.201	-8.35
815.374	67.43
815.547	-22.69
815.72	34.66
815.894	30.56
816.067	18.27
816.24	10.08
816.413	-14.49
816.586	-55.45
816.759	38.75
816.932	-47.26
817.105	-49.31
817.278	22.37
817.452	-18.59
817.625	30.56
817.798	-63.64
817.971	-37.02
818.144	12.13
818.317	-10.4
818.49	55.14
818.662	12.13
818.835	-28.83
819.008	100.19
819.181	71.52
819.354	-0.16
819.527	30.56
819.7	34.66
819.873	22.37
820.046	-10.4
820.218	26.47
820.391	59.23
820.564	16.23
820.737	-8.35
820.909	-43.16
821.082	81.76
821.255	28.51
821.428	34.66
821.6	30.56
821.773	18.27
821.946	92
822.118	5.99
822.291	-18.59
822.464	18.27
822.636	32.61
822.809	-22.69
822.982	34.66
823.154	-28.83
823.327	18.27
823.499	-0.16
823.672	8.03
823.844	30.56
824.017	22.37
824.189	-32.93
824.362	-18.59
824.534	14.18
824.707	22.37
824.879	48.99
825.052	14.18
825.224	55.14
825.396	5.99
825.569	40.8
825.741	8.03
825.914	-16.54
826.086	-6.3
826.258	5.99
826.431	63.33
826.603	20.32
826.775	30.56
826.947	-26.78
827.12	3.94
827.292	8.03
827.464	-47.26
827.636	-34.97
827.809	22.37
827.981	14.18
828.153	36.71
828.325	-16.54
828.497	1.89
828.669	89.95
828.842	-2.21
829.014	-18.59
829.186	-10.4
829.358	-22.69
829.53	8.03
829.702	16.23
829.874	-0.16
830.046	-65.69
830.218	10.08
830.39	-41.12
830.562	46.95
830.734	-41.12
830.906	-49.31
831.078	-24.73
831.25	14.18
831.422	-26.78
831.594	36.71
831.766	40.8
831.937	-59.55
832.109	-34.97
832.281	22.37
832.453	-59.55
832.625	5.99
832.797	16.23
832.968	-34.97
833.14	-102.56
833.312	-24.73
833.484	14.18
833.655	5.99
833.827	-18.59
833.999	5.99
834.171	-43.16
834.342	18.27
834.514	-2.21
834.686	-34.97
834.857	48.99
835.029	-75.93
835.2	-37.02
835.372	-22.69
835.544	-18.59
835.715	5.99
835.887	8.03
836.058	-51.36
836.23	-26.78
836.401	-34.97
836.573	16.23
836.744	-6.3
836.916	-4.25
837.087	-43.16
837.259	-8.35
837.43	-53.4
837.602	-0.16
837.773	18.27
837.945	5.99
838.116	-2.21
838.287	-2.21
838.459	-26.78
838.63	12.13
838.801	36.71
838.973	65.38
839.144	22.37
839.315	-18.59
839.487	-39.07
839.658	-10.4
839.829	-18.59
840	32.61
840.172	18.27
840.343	-39.07
840.514	5.99
840.685	38.75
840.856	5.99
841.027	-2.21
841.199	-88.22
841.37	-71.84
841.541	-0.16
841.712	26.47
841.883	-20.64
842.054	-39.07
842.225	71.52
842.396	-16.54
842.567	-6.3
842.738	30.56
842.909	10.08
843.08	48.99
843.251	-22.69
843.422	-30.88
843.593	3.94
843.764	63.33
843.935	-55.45
844.106	30.56
844.277	1.89
844.448	-55.45
844.619	-61.6
844.79	81.76
844.96	-26.78
845.131	-30.88
845.302	12.13
845.473	-39.07
845.644	22.37
845.814	63.33
845.985	22.37
846.156	63.33
846.327	14.18
846.497	-22.69
846.668	10.08
846.839	22.37
847.01	-24.73
847.18	10.08
847.351	-47.26
847.522	18.27
847.692	-22.69
847.863	59.23
848.033	5.99
848.204	20.32
848.375	-69.79
848.545	8.03
848.716	63.33
848.886	-28.83
849.057	14.18
849.227	63.33
849.398	-22.69
849.568	77.67
849.739	55.14
849.909	-10.4
850.08	30.56
850.25	8.03
850.421	-47.26
850.591	63.33
850.761	1.89
850.932	-18.59
851.102	-16.54
851.272	-12.45
851.443	-14.49
851.613	24.42
851.783	40.8
851.954	28.51
852.124	36.71
852.294	8.03
852.465	-6.3
852.635	-34.97
852.805	42.85
852.975	18.27
853.145	34.66
853.316	59.23
853.486	-45.21
853.656	-18.59
853.826	1.89
853.996	-32.93
854.166	-2.21
854.337	-34.97
854.507	-43.16
854.677	5.99
854.847	28.51
855.017	-24.73
855.187	10.08
855.357	18.27
855.527	16.23
855.697	-43.16
855.867	-16.54
856.037	-96.41
856.207	14.18
856.377	-41.12
856.547	42.85
856.717	22.37
856.887	-28.83
857.057	-8.35
857.227	-18.59
857.397	22.37
857.566	5.99
857.736	10.08
857.906	-63.64
858.076	46.95
858.246	1.89
858.416	-18.59
858.585	-47.26
858.755	18.27
858.925	38.75
859.095	-6.3
859.264	-10.4
859.434	-0.16
859.604	-22.69
859.774	-14.49
859.943	-88.22
860.113	94.05
860.283	-51.36
860.452	-2.21
860.622	89.95
860.791	22.37
860.961	-2.21
861.131	-2.21
861.3	20.32
861.47	14.18
861.639	-8.35
861.809	-2.21
861.978	-80.03
862.148	-55.45
862.318	1.89
862.487	28.51
862.657	-34.97
862.826	8.03
862.995	-59.55
863.165	-26.78
863.334	-22.69
863.504	-0.16
863.673	-82.08
863.843	18.27
864.012	63.33
864.181	63.33
864.351	-22.69
864.52	-49.31
864.689	-0.16
864.859	-59.55
865.028	44.9
865.197	-51.36
865.366	-18.59
865.536	18.27
865.705	22.37
865.874	28.51
866.043	12.13
866.213	34.66
866.382	-10.4
866.551	1.89
866.72	32.61
866.889	22.37
867.059	-20.64
867.228	-24.73
867.397	5.99
867.566	-34.97
867.735	10.08
867.904	-32.93
868.073	-2.21
868.242	-0.16
868.411	-6.3
868.58	32.61
868.749	-22.69
868.918	112.48
869.087	-22.69
869.256	-6.3
869.425	-2.21
869.594	-34.97
869.763	-10.4
869.932	-51.36
870.101	-24.73
870.27	-49.31
870.439	10.08
870.608	-43.16
870.777	-51.36
870.945	-30.88
871.114	-59.55
871.283	26.47
871.452	32.61
871.621	24.42
871.789	-10.4
871.958	-26.78
872.127	-2.21
872.296	32.61
872.464	40.8
872.633	-34.97
872.802	55.14
872.971	24.42
873.139	-4.25
873.308	14.18
873.477	-34.97
873.645	8.03
873.814	38.75
873.983	12.13
874.151	10.08
874.32	46.95
874.488	18.27
874.657	14.18
874.826	-22.69
874.994	-10.4
875.163	-22.69
875.331	30.56
875.5	-82.08
875.668	-32.93
875.837	130.91
876.005	30.56
876.174	-2.21
876.342	22.37
876.51	18.27
876.679	-16.54
876.847	-75.93
877.016	42.85
877.184	-24.73
877.352	-41.12
877.521	-18.59
877.689	-55.45
877.857	-53.4
878.026	1.89
878.194	34.66
878.362	-59.55
878.531	5.99
878.699	-0.16
878.867	30.56
879.036	26.47
879.204	1.89
879.372	-0.16
879.54	-26.78
879.708	-10.4
879.877	-6.3
880.045	-2.21
880.213	-73.88
880.381	-10.4
880.549	-16.54
880.717	18.27
880.885	-4.25
881.054	-2.21
881.222	-24.73
881.39	46.95
881.558	-2.21
881.726	-57.5
881.894	-8.35
882.062	-16.54
882.23	-37.02
882.398	100.19
882.566	8.03
882.734	-0.16
882.902	-16.54
883.07	22.37
883.238	-16.54
883.406	1.89
883.574	-41.12
883.741	-22.69
883.909	5.99
884.077	18.27
884.245	-16.54
884.413	16.23
884.581	48.99
884.749	-8.35
884.916	-6.3
885.084	22.37
885.252	57.19
885.42	22.37
885.587	14.18
885.755	44.9
885.923	46.95
886.091	42.85
886.258	-10.4
886.426	22.37
886.594	-12.45
886.761	-2.21
886.929	8.03
887.097	-4.25
887.264	28.51
887.432	-47.26
887.6	-51.36
887.767	-84.12
887.935	83.81
888.102	114.53
888.27	5.99
888.438	12.13
888.605	14.18
888.773	51.04
888.94	-0.16
889.108	-18.59
889.275	-49.31
889.443	51.04
889.61	3.94
889.778	-41.12
889.945	-2.21
890.112	-20.64
890.28	-14.49
890.447	34.66
890.615	-28.83
890.782	14.18
890.949	14.18
891.117	-39.07
891.284	-59.55
891.452	-26.78
891.619	5.99
891.786	24.42
891.953	16.23
892.121	30.56
892.288	-22.69
892.455	-57.5
892.623	-67.74
892.79	-14.49
892.957	-10.4
893.124	-39.07
893.291	-26.78
893.459	24.42
893.626	10.08
893.793	16.23
893.96	-18.59
894.127	-26.78
894.294	-39.07
894.461	8.03
894.629	16.23
894.796	-34.97
894.963	-30.88
895.13	22.37
895.297	-39.07
895.464	1.89
895.631	-57.5
895.798	-55.45
895.965	120.67
896.132	92
896.299	-16.54
896.466	71.52
896.633	22.37
896.8	10.08
896.967	1.89
897.134	-6.3
897.301	-30.88
897.467	-41.12
897.634	-26.78
897.801	-2.21
897.968	-14.49
898.135	-43.16
898.302	-18.59
898.469	-34.97
898.635	5.99
898.802	-73.88
898.969	26.47
899.136	57.19
899.303	-2.21
