Data from dark_USB4E013581_00015.txt Node
Date: Wed May 08 15:05:46 EDT 2019
User: dh1006
Spectrometer: USB4E01358
Autoset integration time: false
Trigger mode: 4
Integration Time (sec): 2.925000E-2
Scans to average: 1
Electric dark correction enabled: true
Nonlinearity correction enabled: false
Boxcar width: 0
Stray light correction enabled: false
XAxis mode: Wavelengths
Stop averaging: false
Number of Pixels in Spectrum: 3648
>>>>>Begin Spectral Data<<<<<
176.727	-14.97
176.966	-14.97
177.205	-14.97
177.444	-66.17
177.683	5.51
177.922	17.8
178.161	66.95
178.4	46.47
178.638	-47.73
178.877	25.99
179.116	-2.68
179.355	40.33
179.593	-41.59
179.832	81.29
180.071	23.95
180.309	114.06
180.548	56.71
180.786	-10.87
181.025	30.09
181.263	81.29
181.502	99.72
181.74	56.71
181.979	64.9
182.217	66.95
182.456	69
182.694	40.33
182.932	38.28
183.17	42.38
183.409	46.47
183.647	66.95
183.885	103.82
184.123	54.67
184.361	130.44
184.6	28.04
184.838	48.52
185.076	62.86
185.314	15.75
185.552	56.71
185.79	13.71
186.028	-39.54
186.266	25.99
186.503	23.95
186.741	54.67
186.979	91.53
187.217	7.56
187.455	38.28
187.693	21.9
187.93	28.04
188.168	13.71
188.406	28.04
188.643	5.51
188.881	-35.45
189.119	48.52
189.356	48.52
189.594	54.67
189.831	56.71
190.069	81.29
190.306	-31.35
190.543	-17.01
190.781	21.9
191.018	13.71
191.256	54.67
191.493	30.09
191.73	64.9
191.967	21.9
192.205	30.09
192.442	17.8
192.679	91.53
192.916	23.95
193.153	-2.68
193.39	48.52
193.628	25.99
193.865	13.71
194.102	40.33
194.339	17.8
194.576	-35.45
194.813	79.24
195.049	34.19
195.286	-27.25
195.523	48.52
195.76	3.47
195.997	-2.68
196.234	81.29
196.47	107.91
196.707	13.71
196.944	21.9
197.18	15.75
197.417	-19.06
197.654	105.86
197.89	46.47
198.127	97.67
198.363	95.62
198.6	15.75
198.836	5.51
199.073	38.28
199.309	71.05
199.546	9.61
199.782	46.47
200.018	95.62
200.255	50.57
200.491	71.05
200.727	5.51
200.963	62.86
201.199	54.67
201.436	25.99
201.672	15.75
201.908	54.67
202.144	40.33
202.38	36.23
202.616	81.29
202.852	73.1
203.088	23.95
203.324	54.67
203.56	-25.21
203.796	64.9
204.032	69
204.268	87.43
204.503	62.86
204.739	58.76
204.975	5.51
205.211	89.48
205.446	23.95
205.682	54.67
205.918	46.47
206.153	1.42
206.389	30.09
206.625	-43.64
206.86	28.04
207.096	60.81
207.331	17.8
207.567	-33.4
207.802	66.95
208.037	56.71
208.273	58.76
208.508	36.23
208.744	79.24
208.979	-10.87
209.214	50.57
209.449	91.53
209.685	-35.45
209.92	58.76
210.155	38.28
210.39	7.56
210.625	17.8
210.86	50.57
211.095	46.47
211.33	42.38
211.565	-31.35
211.8	46.47
212.035	42.38
212.27	-8.82
212.505	23.95
212.74	105.86
212.975	71.05
213.21	58.76
213.444	-2.68
213.679	112.01
213.914	66.95
214.149	46.47
214.383	83.34
214.618	75.14
214.853	91.53
215.087	62.86
215.322	79.24
215.556	34.19
215.791	71.05
216.025	79.24
216.26	21.9
216.494	56.71
216.729	54.67
216.963	103.82
217.197	40.33
217.432	38.28
217.666	42.38
217.9	32.14
218.135	58.76
218.369	81.29
218.603	21.9
218.837	46.47
219.071	56.71
219.306	-6.77
219.54	48.52
219.774	48.52
220.008	38.28
220.242	-12.92
220.476	32.14
220.71	54.67
220.944	-19.06
221.178	15.75
221.411	-23.16
221.645	62.86
221.879	58.76
222.113	79.24
222.347	64.9
222.58	-76.4
222.814	42.38
223.048	34.19
223.281	13.71
223.515	25.99
223.749	-17.01
223.982	136.58
224.216	44.43
224.449	23.95
224.683	54.67
224.916	38.28
225.15	54.67
225.383	-8.82
225.617	17.8
225.85	58.76
226.083	58.76
226.317	75.14
226.55	46.47
226.783	-2.68
227.016	23.95
227.25	75.14
227.483	36.23
227.716	58.76
227.949	56.71
228.182	60.81
228.415	38.28
228.648	38.28
228.881	46.47
229.114	81.29
229.347	-6.77
229.58	-17.01
229.813	25.99
230.046	38.28
230.279	79.24
230.512	64.9
230.745	62.86
230.977	81.29
231.21	62.86
231.443	13.71
231.675	15.75
231.908	-10.87
232.141	13.71
232.373	89.48
232.606	66.95
232.839	23.95
233.071	13.71
233.304	-10.87
233.536	71.05
233.769	89.48
234.001	28.04
234.233	-43.64
234.466	73.1
234.698	-21.11
234.93	69
235.163	58.76
235.395	-31.35
235.627	62.86
235.86	58.76
236.092	-2.68
236.324	46.47
236.556	66.95
236.788	38.28
237.02	79.24
237.252	46.47
237.484	71.05
237.716	58.76
237.948	69
238.18	-10.87
238.412	103.82
238.644	50.57
238.876	-6.77
239.108	13.71
239.34	-2.68
239.571	-17.01
239.803	30.09
240.035	48.52
240.267	112.01
240.498	112.01
240.73	5.51
240.962	23.95
241.193	-0.63
241.425	9.61
241.656	71.05
241.888	-10.87
242.119	120.2
242.351	21.9
242.582	64.9
242.814	7.56
243.045	44.43
243.277	99.72
243.508	87.43
243.739	30.09
243.971	99.72
244.202	136.58
244.433	9.61
244.664	21.9
244.896	62.86
245.127	38.28
245.358	13.71
245.589	-60.02
245.82	50.57
246.051	30.09
246.282	56.71
246.513	21.9
246.744	83.34
246.975	73.1
247.206	50.57
247.437	23.95
247.668	48.52
247.899	-6.77
248.129	95.62
248.36	56.71
248.591	54.67
248.822	101.77
249.052	87.43
249.283	52.62
249.514	71.05
249.744	-2.68
249.975	30.09
250.206	-2.68
250.436	112.01
250.667	-10.87
250.897	-43.64
251.128	54.67
251.358	58.76
251.589	71.05
251.819	25.99
252.049	66.95
252.28	21.9
252.51	-2.68
252.74	3.47
252.971	11.66
253.201	25.99
253.431	21.9
253.661	13.71
253.891	-2.68
254.121	46.47
254.352	46.47
254.582	30.09
254.812	13.71
255.042	56.71
255.272	81.29
255.502	28.04
255.732	-4.73
255.962	83.34
256.192	-33.4
256.421	58.76
256.651	19.85
256.881	58.76
257.111	79.24
257.341	46.47
257.57	81.29
257.8	56.71
258.03	-23.16
258.259	95.62
258.489	62.86
258.719	38.28
258.948	13.71
259.178	40.33
259.407	46.47
259.637	56.71
259.866	48.52
260.096	1.42
260.325	-64.12
260.555	91.53
260.784	97.67
261.013	-66.17
261.243	30.09
261.472	50.57
261.701	-39.54
261.931	-10.87
262.16	73.1
262.389	48.52
262.618	30.09
262.847	73.1
263.076	15.75
263.305	79.24
263.535	42.38
263.764	25.99
263.993	54.67
264.222	40.33
264.451	91.53
264.679	60.81
264.908	38.28
265.137	9.61
265.366	46.47
265.595	75.14
265.824	34.19
266.053	58.76
266.281	-23.16
266.51	5.51
266.739	64.9
266.967	44.43
267.196	71.05
267.425	42.38
267.653	21.9
267.882	38.28
268.11	38.28
268.339	62.86
268.567	21.9
268.796	13.71
269.024	54.67
269.253	11.66
269.481	46.47
269.709	40.33
269.938	46.47
270.166	77.19
270.394	54.67
270.623	21.9
270.851	30.09
271.079	48.52
271.307	42.38
271.535	28.04
271.764	101.77
271.992	44.43
272.22	36.23
272.448	103.82
272.676	75.14
272.904	91.53
273.132	23.95
273.36	38.28
273.588	64.9
273.816	25.99
274.043	-6.77
274.271	42.38
274.499	-25.21
274.727	36.23
274.955	-35.45
275.182	83.34
275.41	46.47
275.638	77.19
275.866	21.9
276.093	30.09
276.321	62.86
276.548	7.56
276.776	79.24
277.003	13.71
277.231	60.81
277.458	32.14
277.686	25.99
277.913	40.33
278.141	73.1
278.368	91.53
278.595	21.9
278.823	64.9
279.05	30.09
279.277	71.05
279.505	56.71
279.732	11.66
279.959	36.23
280.186	9.61
280.413	15.75
280.641	79.24
280.868	36.23
281.095	11.66
281.322	40.33
281.549	30.09
281.776	99.72
282.003	73.1
282.23	50.57
282.457	40.33
282.683	13.71
282.91	7.56
283.137	64.9
283.364	109.96
283.591	58.76
283.818	34.19
284.044	28.04
284.271	46.47
284.498	97.67
284.724	-39.54
284.951	11.66
285.178	17.8
285.404	-19.06
285.631	30.09
285.857	46.47
286.084	9.61
286.31	112.01
286.537	112.01
286.763	17.8
286.99	71.05
287.216	48.52
287.442	-35.45
287.669	52.62
287.895	107.91
288.121	21.9
288.347	46.47
288.574	-33.4
288.8	54.67
289.026	91.53
289.252	83.34
289.478	-4.73
289.704	79.24
289.931	23.95
290.157	-43.64
290.383	-19.06
290.609	28.04
290.835	46.47
291.06	62.86
291.286	-6.77
291.512	58.76
291.738	5.51
291.964	46.47
292.19	-41.59
292.416	46.47
292.641	-23.16
292.867	30.09
293.093	87.43
293.319	79.24
293.544	11.66
293.77	-10.87
293.995	79.24
294.221	56.71
294.447	30.09
294.672	56.71
294.898	62.86
295.123	25.99
295.349	-8.82
295.574	23.95
295.799	9.61
296.025	75.14
296.25	5.51
296.476	36.23
296.701	11.66
296.926	9.61
297.151	15.75
297.377	42.38
297.602	-2.68
297.827	87.43
298.052	54.67
298.277	109.96
298.502	58.76
298.727	83.34
298.953	17.8
299.178	46.47
299.403	-31.35
299.628	60.81
299.852	15.75
300.077	46.47
300.302	-6.77
300.527	52.62
300.752	58.76
300.977	120.2
301.202	7.56
301.426	1.42
301.651	5.51
301.876	103.82
302.101	-23.16
302.325	73.1
302.55	30.09
302.775	17.8
302.999	5.51
303.224	9.61
303.448	73.1
303.673	28.04
303.897	13.71
304.122	69
304.346	54.67
304.571	-12.92
304.795	-19.06
305.019	34.19
305.244	-19.06
305.468	38.28
305.692	34.19
305.917	87.43
306.141	38.28
306.365	79.24
306.589	105.86
306.813	21.9
307.038	-2.68
307.262	1.42
307.486	-2.68
307.71	54.67
307.934	25.99
308.158	79.24
308.382	103.82
308.606	13.71
308.83	103.82
309.054	-2.68
309.278	40.33
309.502	79.24
309.725	112.01
309.949	36.23
310.173	-43.64
310.397	120.2
310.62	5.51
310.844	-41.59
311.068	34.19
311.292	56.71
311.515	30.09
311.739	42.38
311.962	73.1
312.186	38.28
312.41	64.9
312.633	73.1
312.857	-35.45
313.08	69
313.303	32.14
313.527	85.38
313.75	73.1
313.974	32.14
314.197	-19.06
314.42	50.57
314.644	52.62
314.867	7.56
315.09	25.99
315.313	62.86
315.536	40.33
315.76	-23.16
315.983	124.3
316.206	1.42
316.429	21.9
316.652	7.56
316.875	15.75
317.098	46.47
317.321	1.42
317.544	54.67
317.767	23.95
317.99	-25.21
318.213	-17.01
318.436	87.43
318.658	66.95
318.881	32.14
319.104	30.09
319.327	-2.68
319.55	-8.82
319.772	69
319.995	64.9
320.218	38.28
320.44	75.14
320.663	48.52
320.885	1.42
321.108	32.14
321.331	13.71
321.553	99.72
321.776	46.47
321.998	77.19
322.22	140.68
322.443	54.67
322.665	89.48
322.888	13.71
323.11	83.34
323.332	52.62
323.555	81.29
323.777	30.09
323.999	54.67
324.221	28.04
324.443	62.86
324.666	9.61
324.888	62.86
325.11	58.76
325.332	62.86
325.554	-27.25
325.776	21.9
325.998	91.53
326.22	-19.06
326.442	71.05
326.664	52.62
326.886	103.82
327.108	69
327.33	-14.97
327.551	7.56
327.773	21.9
327.995	62.86
328.217	-41.59
328.439	-19.06
328.66	-27.25
328.882	23.95
329.104	71.05
329.325	46.47
329.547	13.71
329.769	9.61
329.99	30.09
330.212	30.09
330.433	-8.82
330.655	5.51
330.876	83.34
331.098	64.9
331.319	40.33
331.54	38.28
331.762	58.76
331.983	15.75
332.204	107.91
332.426	5.51
332.647	114.06
332.868	-25.21
333.089	103.82
333.311	34.19
333.532	54.67
333.753	79.24
333.974	-10.87
334.195	42.38
334.416	13.71
334.637	-10.87
334.858	66.95
335.079	-10.87
335.3	87.43
335.521	91.53
335.742	42.38
335.963	23.95
336.184	107.91
336.405	17.8
336.626	87.43
336.846	19.85
337.067	25.99
337.288	-17.01
337.509	64.9
337.729	66.95
337.95	81.29
338.171	62.86
338.391	48.52
338.612	54.67
338.833	-2.68
339.053	81.29
339.274	73.1
339.494	73.1
339.715	46.47
339.935	73.1
340.156	-10.87
340.376	52.62
340.596	15.75
340.817	48.52
341.037	71.05
341.257	38.28
341.478	79.24
341.698	42.38
341.918	38.28
342.138	42.38
342.359	-39.54
342.579	48.52
342.799	7.56
343.019	62.86
343.239	-27.25
343.459	91.53
343.679	79.24
343.899	13.71
344.119	-12.92
344.339	62.86
344.559	15.75
344.779	-82.55
344.999	-2.68
345.219	15.75
345.439	107.91
345.658	40.33
345.878	50.57
346.098	103.82
346.318	-4.73
346.537	21.9
346.757	62.86
346.977	62.86
347.196	-10.87
347.416	-10.87
347.636	60.81
347.855	79.24
348.075	-35.45
348.294	50.57
348.514	21.9
348.733	120.2
348.953	140.68
349.172	-39.54
349.392	97.67
349.611	25.99
349.83	81.29
350.05	54.67
350.269	75.14
350.488	5.51
350.707	138.63
350.927	34.19
351.146	62.86
351.365	42.38
351.584	-6.77
351.803	-35.45
352.023	95.62
352.242	-43.64
352.461	30.09
352.68	13.71
352.899	97.67
353.118	62.86
353.337	101.77
353.556	46.47
353.775	21.9
353.993	50.57
354.212	38.28
354.431	36.23
354.65	-10.87
354.869	87.43
355.088	87.43
355.306	66.95
355.525	48.52
355.744	-8.82
355.962	79.24
356.181	42.38
356.4	-8.82
356.618	36.23
356.837	62.86
357.055	38.28
357.274	30.09
357.492	54.67
357.711	17.8
357.929	48.52
358.148	105.86
358.366	116.1
358.585	157.06
358.803	54.67
359.021	48.52
359.24	75.14
359.458	17.8
359.676	42.38
359.894	-17.01
360.113	23.95
360.331	44.43
360.549	25.99
360.767	64.9
360.985	13.71
361.203	-19.06
361.421	34.19
361.639	11.66
361.857	58.76
362.075	9.61
362.293	28.04
362.511	13.71
362.729	83.34
362.947	40.33
363.165	52.62
363.383	-8.82
363.601	87.43
363.819	42.38
364.036	40.33
364.254	17.8
364.472	-2.68
364.689	-0.63
364.907	1.42
365.125	46.47
365.342	42.38
365.56	54.67
365.778	56.71
365.995	32.14
366.213	34.19
366.43	-27.25
366.648	128.39
366.865	81.29
367.083	42.38
367.3	66.95
367.517	38.28
367.735	112.01
367.952	87.43
368.17	66.95
368.387	54.67
368.604	50.57
368.821	56.71
369.039	21.9
369.256	107.91
369.473	-2.68
369.69	46.47
369.907	15.75
370.124	21.9
370.341	9.61
370.558	17.8
370.776	38.28
370.993	-12.92
371.21	30.09
371.426	40.33
371.643	38.28
371.86	-72.31
372.077	23.95
372.294	87.43
372.511	73.1
372.728	30.09
372.945	-10.87
373.161	77.19
373.378	11.66
373.595	54.67
373.811	42.38
374.028	13.71
374.245	62.86
374.461	48.52
374.678	48.52
374.895	87.43
375.111	107.91
375.328	30.09
375.544	54.67
375.761	-6.77
375.977	48.52
376.194	-33.4
376.41	75.14
376.626	-2.68
376.843	79.24
377.059	128.39
377.275	-35.45
377.492	42.38
377.708	5.51
377.924	62.86
378.14	-10.87
378.357	95.62
378.573	89.48
378.789	-23.16
379.005	48.52
379.221	7.56
379.437	79.24
379.653	46.47
379.869	38.28
380.085	9.61
380.301	60.81
380.517	30.09
380.733	-2.68
380.949	46.47
381.165	19.85
381.381	30.09
381.597	25.99
381.813	73.1
382.028	128.39
382.244	17.8
382.46	42.38
382.676	85.38
382.891	9.61
383.107	19.85
383.323	13.71
383.538	-39.54
383.754	91.53
383.969	42.38
384.185	91.53
384.4	99.72
384.616	62.86
384.831	1.42
385.047	50.57
385.262	1.42
385.478	50.57
385.693	7.56
385.909	56.71
386.124	58.76
386.339	9.61
386.554	38.28
386.77	42.38
386.985	1.42
387.2	71.05
387.415	58.76
387.631	58.76
387.846	-49.78
388.061	-19.06
388.276	-12.92
388.491	-31.35
388.706	-12.92
388.921	-10.87
389.136	38.28
389.351	-0.63
389.566	15.75
389.781	23.95
389.996	69
390.211	60.81
390.426	5.51
390.641	89.48
390.855	-21.11
391.07	136.58
391.285	95.62
391.5	81.29
391.714	36.23
391.929	38.28
392.144	30.09
392.358	11.66
392.573	38.28
392.788	38.28
393.002	91.53
393.217	77.19
393.431	87.43
393.646	40.33
393.86	71.05
394.075	30.09
394.289	46.47
394.504	36.23
394.718	54.67
394.933	99.72
395.147	48.52
395.361	62.86
395.576	81.29
395.79	-25.21
396.004	40.33
396.218	112.01
396.432	9.61
396.647	64.9
396.861	13.71
397.075	58.76
397.289	-2.68
397.503	-19.06
397.717	73.1
397.931	28.04
398.145	-29.3
398.359	-47.73
398.573	66.95
398.787	62.86
399.001	19.85
399.215	52.62
399.429	38.28
399.643	-25.21
399.857	64.9
400.07	66.95
400.284	30.09
400.498	75.14
400.712	54.67
400.925	97.67
401.139	-2.68
401.353	30.09
401.566	42.38
401.78	38.28
401.994	-0.63
402.207	13.71
402.421	3.47
402.634	64.9
402.848	62.86
403.061	116.1
403.275	32.14
403.488	58.76
403.702	5.51
403.915	15.75
404.128	-2.68
404.342	15.75
404.555	3.47
404.768	-10.87
404.982	71.05
405.195	7.56
405.408	13.71
405.621	-4.73
405.835	-29.3
406.048	-49.78
406.261	66.95
406.474	97.67
406.687	1.42
406.9	97.67
407.113	-19.06
407.326	23.95
407.539	13.71
407.752	-8.82
407.965	42.38
408.178	71.05
408.391	30.09
408.604	-4.73
408.817	75.14
409.029	87.43
409.242	38.28
409.455	9.61
409.668	21.9
409.881	25.99
410.093	5.51
410.306	64.9
410.519	13.71
410.731	30.09
410.944	13.71
411.157	95.62
411.369	75.14
411.582	38.28
411.794	-31.35
412.007	83.34
412.219	71.05
412.432	9.61
412.644	-14.97
412.857	79.24
413.069	21.9
413.281	-10.87
413.494	13.71
413.706	50.57
413.918	-29.3
414.131	64.9
414.343	-0.63
414.555	50.57
414.767	-19.06
414.979	46.47
415.192	79.24
415.404	54.67
415.616	62.86
415.828	44.43
416.04	38.28
416.252	30.09
416.464	-2.68
416.676	32.14
416.888	1.42
417.1	21.9
417.312	21.9
417.524	44.43
417.736	-55.93
417.948	40.33
418.159	34.19
418.371	54.67
418.583	71.05
418.795	-27.25
419.007	34.19
419.218	15.75
419.43	1.42
419.642	-39.54
419.853	50.57
420.065	54.67
420.276	50.57
420.488	11.66
420.7	-29.3
420.911	-12.92
421.123	46.47
421.334	9.61
421.546	56.71
421.757	-17.01
421.969	21.9
422.18	3.47
422.391	11.66
422.603	-25.21
422.814	-2.68
423.025	83.34
423.237	15.75
423.448	30.09
423.659	36.23
423.87	81.29
424.082	34.19
424.293	112.01
424.504	9.61
424.715	15.75
424.926	1.42
425.137	19.85
425.348	42.38
425.559	23.95
425.77	30.09
425.981	-27.25
426.192	44.43
426.403	-10.87
426.614	5.51
426.825	-10.87
427.036	32.14
427.247	46.47
427.458	48.52
427.668	46.47
427.879	38.28
428.09	62.86
428.301	69
428.511	87.43
428.722	15.75
428.933	120.2
429.143	-27.25
429.354	71.05
429.565	97.67
429.775	7.56
429.986	79.24
430.196	85.38
430.407	58.76
430.617	79.24
430.828	40.33
431.038	48.52
431.249	3.47
431.459	36.23
431.669	13.71
431.88	42.38
432.09	15.75
432.3	101.77
432.511	32.14
432.721	48.52
432.931	-6.77
433.141	25.99
433.351	38.28
433.562	112.01
433.772	15.75
433.982	30.09
434.192	5.51
434.402	25.99
434.612	-10.87
434.822	13.71
435.032	73.1
435.242	79.24
435.452	62.86
435.662	1.42
435.872	30.09
436.082	71.05
436.292	-37.49
436.502	122.25
436.711	64.9
436.921	62.86
437.131	46.47
437.341	103.82
437.551	21.9
437.76	58.76
437.97	-2.68
438.18	118.15
438.389	71.05
438.599	75.14
438.808	64.9
439.018	42.38
439.228	7.56
439.437	32.14
439.647	23.95
439.856	-4.73
440.066	-8.82
440.275	128.39
440.484	34.19
440.694	91.53
440.903	28.04
441.113	-27.25
441.322	28.04
441.531	9.61
441.741	46.47
441.95	38.28
442.159	-27.25
442.368	56.71
442.577	1.42
442.787	15.75
442.996	-0.63
443.205	58.76
443.414	81.29
443.623	30.09
443.832	58.76
444.041	79.24
444.25	-10.87
444.459	-12.92
444.668	118.15
444.877	-2.68
445.086	-8.82
445.295	40.33
445.504	46.47
445.713	19.85
445.922	48.52
446.13	32.14
446.339	46.47
446.548	5.51
446.757	40.33
446.965	105.86
447.174	25.99
447.383	46.47
447.591	23.95
447.8	-2.68
448.009	7.56
448.217	7.56
448.426	75.14
448.634	64.9
448.843	93.58
449.051	44.43
449.26	-25.21
449.468	21.9
449.677	95.62
449.885	120.2
450.093	-19.06
450.302	-17.01
450.51	30.09
450.719	56.71
450.927	-10.87
451.135	58.76
451.343	66.95
451.552	11.66
451.76	5.51
451.968	48.52
452.176	95.62
452.384	-39.54
452.592	32.14
452.8	21.9
453.009	54.67
453.217	79.24
453.425	21.9
453.633	58.76
453.841	62.86
454.049	54.67
454.257	17.8
454.464	93.58
454.672	25.99
454.88	5.51
455.088	25.99
455.296	79.24
455.504	17.8
455.711	38.28
455.919	-27.25
456.127	25.99
456.335	15.75
456.542	-14.97
456.75	91.53
456.958	-51.83
457.165	21.9
457.373	89.48
457.581	46.47
457.788	1.42
457.996	56.71
458.203	-19.06
458.411	-27.25
458.618	-31.35
458.826	-10.87
459.033	34.19
459.24	54.67
459.448	38.28
459.655	21.9
459.863	81.29
460.07	9.61
460.277	73.1
460.484	30.09
460.692	64.9
460.899	32.14
461.106	-43.64
461.313	46.47
461.52	34.19
461.728	40.33
461.935	42.38
462.142	5.51
462.349	-27.25
462.556	95.62
462.763	-0.63
462.97	13.71
463.177	48.52
463.384	50.57
463.591	120.2
463.798	62.86
464.005	9.61
464.212	25.99
464.418	-39.54
464.625	73.1
464.832	25.99
465.039	-25.21
465.246	52.62
465.452	95.62
465.659	62.86
465.866	48.52
466.072	40.33
466.279	79.24
466.486	-17.01
466.692	5.51
466.899	54.67
467.105	142.73
467.312	71.05
467.519	38.28
467.725	105.86
467.931	13.71
468.138	-31.35
468.344	15.75
468.551	9.61
468.757	54.67
468.964	-0.63
469.17	36.23
469.376	-19.06
469.583	13.71
469.789	62.86
469.995	64.9
470.201	36.23
470.408	34.19
470.614	-37.49
470.82	62.86
471.026	46.47
471.232	-8.82
471.438	21.9
471.644	13.71
471.85	13.71
472.056	42.38
472.262	23.95
472.468	13.71
472.674	-6.77
472.88	17.8
473.086	-57.97
473.292	-19.06
473.498	32.14
473.704	40.33
473.91	71.05
474.116	46.47
474.321	73.1
474.527	-27.25
474.733	17.8
474.939	87.43
475.144	52.62
475.35	5.51
475.556	73.1
475.761	62.86
475.967	71.05
476.173	56.71
476.378	56.71
476.584	-0.63
476.789	17.8
476.995	23.95
477.2	40.33
477.406	56.71
477.611	7.56
477.817	91.53
478.022	46.47
478.227	50.57
478.433	66.95
478.638	13.71
478.843	44.43
479.049	25.99
479.254	87.43
479.459	34.19
479.664	62.86
479.87	-2.68
480.075	69
480.28	23.95
480.485	34.19
480.69	-49.78
480.895	48.52
481.1	-49.78
481.306	71.05
481.511	48.52
481.716	11.66
481.921	44.43
482.126	36.23
482.33	56.71
482.535	15.75
482.74	30.09
482.945	5.51
483.15	50.57
483.355	25.99
483.56	-35.45
483.765	71.05
483.969	58.76
484.174	58.76
484.379	66.95
484.583	66.95
484.788	54.67
484.993	-51.83
485.197	95.62
485.402	42.38
485.607	-6.77
485.811	32.14
486.016	21.9
486.22	9.61
486.425	-14.97
486.629	136.58
486.834	87.43
487.038	130.44
487.243	40.33
487.447	-25.21
487.652	54.67
487.856	21.9
488.06	105.86
488.265	15.75
488.469	46.47
488.673	79.24
488.877	23.95
489.082	46.47
489.286	7.56
489.49	38.28
489.694	46.47
489.898	38.28
490.102	52.62
490.307	46.47
490.511	21.9
490.715	99.72
490.919	42.38
491.123	38.28
491.327	-19.06
491.531	21.9
491.735	48.52
491.939	30.09
492.143	85.38
492.346	32.14
492.55	56.71
492.754	30.09
492.958	13.71
493.162	-19.06
493.366	46.47
493.569	34.19
493.773	17.8
493.977	32.14
494.18	21.9
494.384	56.71
494.588	152.97
494.791	38.28
494.995	48.52
495.199	30.09
495.402	62.86
495.606	15.75
495.809	38.28
496.013	66.95
496.216	54.67
496.42	66.95
496.623	128.39
496.827	15.75
497.03	66.95
497.233	28.04
497.437	-19.06
497.64	21.9
497.843	-0.63
498.047	30.09
498.25	34.19
498.453	21.9
498.656	109.96
498.86	42.38
499.063	-14.97
499.266	30.09
499.469	-25.21
499.672	7.56
499.875	81.29
500.078	130.44
500.281	140.68
500.484	81.29
500.687	13.71
500.89	87.43
501.093	44.43
501.296	-23.16
501.499	97.67
501.702	-31.35
501.905	75.14
502.108	21.9
502.311	23.95
502.514	-17.01
502.716	109.96
502.919	11.66
503.122	40.33
503.325	64.9
503.527	56.71
503.73	15.75
503.933	23.95
504.135	-2.68
504.338	54.67
504.541	66.95
504.743	-8.82
504.946	-6.77
505.148	56.71
505.351	21.9
505.553	21.9
505.756	28.04
505.958	46.47
506.161	13.71
506.363	28.04
506.565	30.09
506.768	21.9
506.97	75.14
507.172	93.58
507.375	30.09
507.577	-43.64
507.779	73.1
507.982	9.61
508.184	17.8
508.386	3.47
508.588	30.09
508.79	-19.06
508.993	30.09
509.195	-55.93
509.397	15.75
509.599	-0.63
509.801	42.38
510.003	-47.73
510.205	62.86
510.407	-64.12
510.609	97.67
510.811	112.01
511.013	64.9
511.215	-4.73
511.417	1.42
511.618	11.66
511.82	46.47
512.022	-8.82
512.224	97.67
512.426	69
512.627	-0.63
512.829	46.47
513.031	-19.06
513.233	13.71
513.434	54.67
513.636	95.62
513.838	40.33
514.039	11.66
514.241	40.33
514.442	13.71
514.644	95.62
514.845	-23.16
515.047	-27.25
515.248	60.81
515.45	62.86
515.651	5.51
515.853	69
516.054	32.14
516.256	15.75
516.457	-31.35
516.658	-8.82
516.86	-10.87
517.061	36.23
517.262	64.9
517.463	-17.01
517.665	56.71
517.866	-0.63
518.067	89.48
518.268	38.28
518.469	-27.25
518.67	5.51
518.872	87.43
519.073	66.95
519.274	73.1
519.475	62.86
519.676	-27.25
519.877	25.99
520.078	75.14
520.279	50.57
520.48	40.33
520.681	-19.06
520.881	-2.68
521.082	-2.68
521.283	71.05
521.484	83.34
521.685	95.62
521.886	48.52
522.086	7.56
522.287	79.24
522.488	54.67
522.689	19.85
522.889	5.51
523.09	46.47
523.291	46.47
523.491	23.95
523.692	-10.87
523.892	64.9
524.093	21.9
524.294	89.48
524.494	56.71
524.695	17.8
524.895	109.96
525.096	42.38
525.296	-23.16
525.496	40.33
525.697	-41.59
525.897	7.56
526.098	-0.63
526.298	103.82
526.498	32.14
526.699	62.86
526.899	52.62
527.099	38.28
527.299	38.28
527.499	-4.73
527.7	5.51
527.9	89.48
528.1	87.43
528.3	-6.77
528.5	46.47
528.7	-0.63
528.9	30.09
529.1	-0.63
529.3	60.81
529.5	87.43
529.7	-55.93
529.9	62.86
530.1	-0.63
530.3	95.62
530.5	89.48
530.7	13.71
530.9	81.29
531.1	81.29
531.3	21.9
531.499	48.52
531.699	54.67
531.899	58.76
532.099	25.99
532.298	46.47
532.498	50.57
532.698	30.09
532.897	54.67
533.097	54.67
533.297	56.71
533.496	-8.82
533.696	9.61
533.895	54.67
534.095	23.95
534.294	79.24
534.494	5.51
534.693	89.48
534.893	13.71
535.092	42.38
535.292	81.29
535.491	107.91
535.69	60.81
535.89	-2.68
536.089	-17.01
536.288	5.51
536.488	87.43
536.687	1.42
536.886	71.05
537.085	54.67
537.285	7.56
537.484	62.86
537.683	71.05
537.882	52.62
538.081	32.14
538.28	54.67
538.479	17.8
538.678	28.04
538.877	7.56
539.076	-0.63
539.275	48.52
539.474	-10.87
539.673	32.14
539.872	38.28
540.071	13.71
540.27	46.47
540.469	52.62
540.668	32.14
540.867	89.48
541.065	64.9
541.264	17.8
541.463	-6.77
541.662	3.47
541.861	157.06
542.059	64.9
542.258	95.62
542.457	-27.25
542.655	5.51
542.854	17.8
543.052	23.95
543.251	-17.01
543.45	25.99
543.648	13.71
543.847	38.28
544.045	83.34
544.244	42.38
544.442	62.86
544.641	23.95
544.839	-39.54
545.037	23.95
545.236	23.95
545.434	17.8
545.632	38.28
545.831	103.82
546.029	-10.87
546.227	66.95
546.426	66.95
546.624	7.56
546.822	87.43
547.02	-6.77
547.218	79.24
547.417	28.04
547.615	103.82
547.813	64.9
548.011	21.9
548.209	62.86
548.407	58.76
548.605	79.24
548.803	23.95
549.001	46.47
549.199	-2.68
549.397	48.52
549.595	15.75
549.793	58.76
549.991	40.33
550.189	30.09
550.387	54.67
550.584	103.82
550.782	30.09
550.98	-2.68
551.178	81.29
551.376	23.95
551.573	-2.68
551.771	5.51
551.969	38.28
552.166	-68.21
552.364	52.62
552.562	75.14
552.759	13.71
552.957	71.05
553.154	50.57
553.352	52.62
553.55	13.71
553.747	109.96
553.945	62.86
554.142	60.81
554.339	62.86
554.537	136.58
554.734	-14.97
554.932	25.99
555.129	48.52
555.326	36.23
555.524	38.28
555.721	5.51
555.918	17.8
556.116	48.52
556.313	54.67
556.51	62.86
556.707	62.86
556.904	54.67
557.102	38.28
557.299	54.67
557.496	32.14
557.693	58.76
557.89	21.9
558.087	112.01
558.284	54.67
558.481	60.81
558.678	-4.73
558.875	79.24
559.072	50.57
559.269	79.24
559.466	48.52
559.663	30.09
559.86	66.95
560.057	95.62
560.254	-25.21
560.45	38.28
560.647	23.95
560.844	-17.01
561.041	19.85
561.237	48.52
561.434	52.62
561.631	-0.63
561.828	30.09
562.024	42.38
562.221	5.51
562.418	5.51
562.614	-14.97
562.811	25.99
563.007	32.14
563.204	7.56
563.4	13.71
563.597	66.95
563.793	54.67
563.99	-14.97
564.186	91.53
564.383	15.75
564.579	9.61
564.775	83.34
564.972	40.33
565.168	48.52
565.365	79.24
565.561	40.33
565.757	54.67
565.953	-19.06
566.15	30.09
566.346	30.09
566.542	-10.87
566.738	69
566.934	9.61
567.131	-0.63
567.327	23.95
567.523	-19.06
567.719	23.95
567.915	83.34
568.111	89.48
568.307	-43.64
568.503	-6.77
568.699	52.62
568.895	85.38
569.091	38.28
569.287	15.75
569.483	15.75
569.679	19.85
569.875	-25.21
570.07	-25.21
570.266	73.1
570.462	79.24
570.658	-2.68
570.854	71.05
571.049	-14.97
571.245	15.75
571.441	30.09
571.636	-31.35
571.832	-27.25
572.028	42.38
572.223	54.67
572.419	1.42
572.615	1.42
572.81	38.28
573.006	77.19
573.201	64.9
573.397	46.47
573.592	34.19
573.788	42.38
573.983	54.67
574.179	103.82
574.374	66.95
574.569	-10.87
574.765	-6.77
574.96	38.28
575.156	75.14
575.351	50.57
575.546	17.8
575.741	-14.97
575.937	13.71
576.132	-2.68
576.327	34.19
576.522	5.51
576.718	40.33
576.913	-31.35
577.108	-35.45
577.303	79.24
577.498	62.86
577.693	5.51
577.888	73.1
578.083	44.43
578.278	-2.68
578.473	15.75
578.668	30.09
578.863	79.24
579.058	54.67
579.253	79.24
579.448	79.24
579.643	79.24
579.838	30.09
580.033	7.56
580.227	21.9
580.422	25.99
580.617	21.9
580.812	30.09
581.006	-19.06
581.201	46.47
581.396	36.23
581.591	79.24
581.785	97.67
581.98	56.71
582.175	87.43
582.369	46.47
582.564	66.95
582.758	52.62
582.953	-19.06
583.147	-23.16
583.342	95.62
583.536	30.09
583.731	17.8
583.925	85.38
584.12	19.85
584.314	58.76
584.509	5.51
584.703	5.51
584.897	42.38
585.092	103.82
585.286	48.52
585.48	-2.68
585.674	54.67
585.869	81.29
586.063	34.19
586.257	79.24
586.451	62.86
586.646	5.51
586.84	71.05
587.034	54.67
587.228	38.28
587.422	9.61
587.616	5.51
587.81	-2.68
588.004	19.85
588.198	34.19
588.392	38.28
588.586	21.9
588.78	73.1
588.974	42.38
589.168	30.09
589.362	9.61
589.556	-39.54
589.75	-6.77
589.944	-35.45
590.137	-10.87
590.331	50.57
590.525	-4.73
590.719	-2.68
590.913	-19.06
591.106	21.9
591.3	30.09
591.494	-6.77
591.687	101.77
591.881	34.19
592.075	34.19
592.268	19.85
592.462	30.09
592.655	79.24
592.849	23.95
593.043	-12.92
593.236	15.75
593.43	19.85
593.623	52.62
593.817	13.71
594.01	46.47
594.203	87.43
594.397	3.47
594.59	-12.92
594.784	30.09
594.977	66.95
595.17	58.76
595.364	-23.16
595.557	13.71
595.75	-23.16
595.943	81.29
596.137	132.49
596.33	42.38
596.523	91.53
596.716	58.76
596.909	-10.87
597.102	13.71
597.296	50.57
597.489	56.71
597.682	36.23
597.875	42.38
598.068	-45.69
598.261	3.47
598.454	58.76
598.647	7.56
598.84	32.14
599.033	-10.87
599.226	-0.63
599.419	21.9
599.611	50.57
599.804	79.24
599.997	-2.68
600.19	46.47
600.383	32.14
600.576	30.09
600.768	42.38
600.961	48.52
601.154	66.95
601.347	-10.87
601.539	-2.68
601.732	9.61
601.925	-25.21
602.117	62.86
602.31	54.67
602.502	19.85
602.695	42.38
602.888	69
603.08	32.14
603.273	62.86
603.465	62.86
603.658	38.28
603.85	95.62
604.043	21.9
604.235	38.28
604.427	77.19
604.62	38.28
604.812	48.52
605.004	23.95
605.197	50.57
605.389	9.61
605.581	46.47
605.774	95.62
605.966	9.61
606.158	9.61
606.35	66.95
606.543	38.28
606.735	73.1
606.927	66.95
607.119	-37.49
607.311	44.43
607.503	34.19
607.695	56.71
607.887	58.76
608.079	17.8
608.271	25.99
608.463	-49.78
608.655	46.47
608.847	64.9
609.039	-10.87
609.231	21.9
609.423	-0.63
609.615	32.14
609.807	-27.25
609.999	62.86
610.191	101.77
610.382	42.38
610.574	116.1
610.766	15.75
610.958	54.67
611.15	25.99
611.341	54.67
611.533	19.85
611.725	71.05
611.916	5.51
612.108	15.75
612.3	9.61
612.491	73.1
612.683	71.05
612.874	48.52
613.066	52.62
613.257	62.86
613.449	5.51
613.64	107.91
613.832	32.14
614.023	44.43
614.215	112.01
614.406	34.19
614.598	30.09
614.789	73.1
614.98	-64.12
615.172	58.76
615.363	21.9
615.554	-23.16
615.746	89.48
615.937	54.67
616.128	44.43
616.319	64.9
616.511	34.19
616.702	58.76
616.893	28.04
617.084	1.42
617.275	30.09
617.466	-23.16
617.658	23.95
617.849	38.28
618.04	15.75
618.231	81.29
618.422	36.23
618.613	58.76
618.804	46.47
618.995	-14.97
619.186	-49.78
619.377	30.09
619.568	11.66
619.758	64.9
619.949	-19.06
620.14	7.56
620.331	122.25
620.522	5.51
620.713	15.75
620.903	38.28
621.094	23.95
621.285	79.24
621.476	25.99
621.666	25.99
621.857	89.48
622.048	38.28
622.238	54.67
622.429	48.52
622.62	60.81
622.81	75.14
623.001	-4.73
623.191	5.51
623.382	50.57
623.572	62.86
623.763	9.61
623.953	66.95
624.144	13.71
624.334	13.71
624.525	21.9
624.715	62.86
624.905	79.24
625.096	75.14
625.286	32.14
625.477	46.47
625.667	-8.82
625.857	11.66
626.047	5.51
626.238	62.86
626.428	11.66
626.618	105.86
626.808	-14.97
626.999	48.52
627.189	15.75
627.379	28.04
627.569	-10.87
627.759	50.57
627.949	19.85
628.139	19.85
628.329	40.33
628.519	87.43
628.709	-0.63
628.899	89.48
629.089	13.71
629.279	79.24
629.469	-2.68
629.659	-10.87
629.849	-60.02
630.039	-6.77
630.229	13.71
630.419	48.52
630.609	89.48
630.798	-17.01
630.988	1.42
631.178	30.09
631.368	73.1
631.557	13.71
631.747	-14.97
631.937	38.28
632.127	-27.25
632.316	42.38
632.506	56.71
632.696	21.9
632.885	1.42
633.075	54.67
633.264	17.8
633.454	7.56
633.643	32.14
633.833	48.52
634.022	28.04
634.212	42.38
634.401	5.51
634.591	60.81
634.78	23.95
634.97	62.86
635.159	42.38
635.348	48.52
635.538	5.51
635.727	95.62
635.916	28.04
636.106	71.05
636.295	46.47
636.484	97.67
636.674	40.33
636.863	-2.68
637.052	79.24
637.241	83.34
637.43	54.67
637.619	40.33
637.809	21.9
637.998	-33.4
638.187	-41.59
638.376	73.1
638.565	-27.25
638.754	79.24
638.943	30.09
639.132	-27.25
639.321	44.43
639.51	-19.06
639.699	56.71
639.888	56.71
640.077	30.09
640.266	30.09
640.455	50.57
640.643	95.62
640.832	62.86
641.021	116.1
641.21	38.28
641.399	54.67
641.587	79.24
641.776	62.86
641.965	5.51
642.154	134.54
642.342	17.8
642.531	40.33
642.72	-23.16
642.908	28.04
643.097	44.43
643.286	32.14
643.474	38.28
643.663	-27.25
643.851	13.71
644.04	-8.82
644.228	30.09
644.417	69
644.605	15.75
644.794	36.23
644.982	32.14
645.171	40.33
645.359	77.19
645.547	-8.82
645.736	42.38
645.924	69
646.112	79.24
646.301	93.58
646.489	17.8
646.677	5.51
646.866	25.99
647.054	13.71
647.242	25.99
647.43	79.24
647.618	34.19
647.807	81.29
647.995	-27.25
648.183	54.67
648.371	87.43
648.559	15.75
648.747	23.95
648.935	107.91
649.123	48.52
649.311	-47.73
649.499	60.81
649.687	40.33
649.875	7.56
650.063	54.67
650.251	34.19
650.439	124.3
650.627	46.47
650.815	40.33
651.003	1.42
651.191	21.9
651.378	50.57
651.566	62.86
651.754	89.48
651.942	17.8
652.13	13.71
652.317	13.71
652.505	56.71
652.693	103.82
652.88	130.44
653.068	36.23
653.256	60.81
653.443	34.19
653.631	-14.97
653.819	7.56
654.006	40.33
654.194	73.1
654.381	71.05
654.569	25.99
654.756	-0.63
654.944	42.38
655.131	99.72
655.319	48.52
655.506	-4.73
655.693	48.52
655.881	34.19
656.068	69
656.256	25.99
656.443	42.38
656.63	-8.82
656.818	97.67
657.005	-39.54
657.192	5.51
657.379	52.62
657.567	95.62
657.754	21.9
657.941	40.33
658.128	95.62
658.315	-33.4
658.502	-10.87
658.69	38.28
658.877	13.71
659.064	120.2
659.251	64.9
659.438	-4.73
659.625	38.28
659.812	46.47
659.999	48.52
660.186	21.9
660.373	1.42
660.56	66.95
660.747	99.72
660.934	79.24
661.121	-25.21
661.308	13.71
661.494	34.19
661.681	44.43
661.868	15.75
662.055	13.71
662.242	34.19
662.428	66.95
662.615	7.56
662.802	48.52
662.989	64.9
663.175	5.51
663.362	105.86
663.549	-6.77
663.735	71.05
663.922	40.33
664.109	46.47
664.295	23.95
664.482	62.86
664.668	15.75
664.855	83.34
665.041	42.38
665.228	-23.16
665.414	42.38
665.601	40.33
665.787	21.9
665.974	13.71
666.16	89.48
666.347	15.75
666.533	36.23
666.719	-33.4
666.906	21.9
667.092	1.42
667.278	-35.45
667.465	9.61
667.651	54.67
667.837	11.66
668.023	21.9
668.21	9.61
668.396	71.05
668.582	-19.06
668.768	58.76
668.954	36.23
669.14	5.51
669.327	7.56
669.513	-19.06
669.699	7.56
669.885	64.9
670.071	30.09
670.257	25.99
670.443	28.04
670.629	54.67
670.815	32.14
671.001	1.42
671.187	32.14
671.373	32.14
671.559	-0.63
671.744	46.47
671.93	21.9
672.116	85.38
672.302	40.33
672.488	54.67
672.674	58.76
672.859	32.14
673.045	79.24
673.231	64.9
673.417	64.9
673.602	77.19
673.788	25.99
673.974	30.09
674.159	-37.49
674.345	103.82
674.531	23.95
674.716	11.66
674.902	32.14
675.087	-47.73
675.273	38.28
675.459	89.48
675.644	-0.63
675.83	30.09
676.015	87.43
676.2	13.71
676.386	87.43
676.571	-35.45
676.757	-0.63
676.942	21.9
677.128	58.76
677.313	34.19
677.498	58.76
677.684	56.71
677.869	62.86
678.054	38.28
678.24	9.61
678.425	58.76
678.61	-55.93
678.795	95.62
678.98	1.42
679.166	56.71
679.351	-43.64
679.536	-35.45
679.721	21.9
679.906	13.71
680.091	32.14
680.276	62.86
680.461	-2.68
680.647	50.57
680.832	54.67
681.017	81.29
681.202	-2.68
681.387	42.38
681.572	62.86
681.756	136.58
681.941	5.51
682.126	83.34
682.311	-60.02
682.496	3.47
682.681	79.24
682.866	11.66
683.051	21.9
683.235	30.09
683.42	56.71
683.605	9.61
683.79	99.72
683.974	40.33
684.159	17.8
684.344	21.9
684.529	7.56
684.713	56.71
684.898	34.19
685.083	71.05
685.267	21.9
685.452	15.75
685.636	124.3
685.821	120.2
686.005	54.67
686.19	36.23
686.375	48.52
686.559	-12.92
686.744	23.95
686.928	54.67
687.112	71.05
687.297	46.47
687.481	46.47
687.666	38.28
687.85	56.71
688.034	46.47
688.219	62.86
688.403	13.71
688.587	73.1
688.772	-23.16
688.956	13.71
689.14	56.71
689.324	36.23
689.509	77.19
689.693	46.47
689.877	1.42
690.061	46.47
690.245	75.14
690.43	54.67
690.614	32.14
690.798	34.19
690.982	34.19
691.166	-8.82
691.35	56.71
691.534	-49.78
691.718	42.38
691.902	46.47
692.086	13.71
692.27	-37.49
692.454	54.67
692.638	21.9
692.822	87.43
693.006	7.56
693.19	30.09
693.373	114.06
693.557	66.95
693.741	19.85
693.925	13.71
694.109	-27.25
694.293	81.29
694.476	9.61
694.66	34.19
694.844	81.29
695.027	75.14
695.211	-35.45
695.395	38.28
695.578	9.61
695.762	30.09
695.946	9.61
696.129	34.19
696.313	71.05
696.497	50.57
696.68	5.51
696.864	21.9
697.047	69
697.231	30.09
697.414	1.42
697.598	71.05
697.781	25.99
697.965	56.71
698.148	3.47
698.331	15.75
698.515	44.43
698.698	97.67
698.881	-29.3
699.065	71.05
699.248	89.48
699.431	13.71
699.615	-27.25
699.798	46.47
699.981	-6.77
700.165	42.38
700.348	11.66
700.531	36.23
700.714	93.58
700.897	-6.77
701.08	-14.97
701.264	54.67
701.447	56.71
701.63	64.9
701.813	23.95
701.996	46.47
702.179	38.28
702.362	56.71
702.545	101.77
702.728	7.56
702.911	28.04
703.094	60.81
703.277	23.95
703.46	13.71
703.643	46.47
703.826	5.51
704.009	42.38
704.191	13.71
704.374	81.29
704.557	-2.68
704.74	34.19
704.923	38.28
705.106	15.75
705.288	30.09
705.471	5.51
705.654	-10.87
705.837	11.66
706.019	25.99
706.202	32.14
706.385	-23.16
706.567	13.71
706.75	79.24
706.932	-4.73
707.115	-0.63
707.298	30.09
707.48	-14.97
707.663	-25.21
707.845	97.67
708.028	23.95
708.21	107.91
708.393	71.05
708.575	21.9
708.758	42.38
708.94	21.9
709.123	73.1
709.305	87.43
709.487	50.57
709.67	42.38
709.852	38.28
710.034	50.57
710.217	1.42
710.399	13.71
710.581	62.86
710.764	13.71
710.946	30.09
711.128	21.9
711.31	32.14
711.492	-10.87
711.675	79.24
711.857	25.99
712.039	38.28
712.221	64.9
712.403	3.47
712.585	38.28
712.767	-8.82
712.949	21.9
713.131	54.67
713.314	19.85
713.496	56.71
713.678	9.61
713.86	-6.77
714.041	54.67
714.223	-4.73
714.405	56.71
714.587	79.24
714.769	-27.25
714.951	5.51
715.133	21.9
715.315	-19.06
715.497	73.1
715.678	17.8
715.86	34.19
716.042	56.71
716.224	30.09
716.406	46.47
716.587	19.85
716.769	62.86
716.951	79.24
717.132	48.52
717.314	87.43
717.496	-31.35
717.677	81.29
717.859	38.28
718.041	60.81
718.222	62.86
718.404	19.85
718.585	79.24
718.767	13.71
718.948	46.47
719.13	5.51
719.311	48.52
719.493	13.71
719.674	50.57
719.856	52.62
720.037	30.09
720.219	103.82
720.4	62.86
720.581	-33.4
720.763	-4.73
720.944	40.33
721.125	21.9
721.307	30.09
721.488	48.52
721.669	64.9
721.85	30.09
722.032	114.06
722.213	85.38
722.394	15.75
722.575	21.9
722.756	5.51
722.938	-17.01
723.119	38.28
723.3	95.62
723.481	64.9
723.662	38.28
723.843	32.14
724.024	13.71
724.205	71.05
724.386	66.95
724.567	13.71
724.748	30.09
724.929	87.43
725.11	21.9
725.291	34.19
725.472	13.71
725.653	9.61
725.834	-2.68
726.015	60.81
726.196	48.52
726.377	21.9
726.557	71.05
726.738	15.75
726.919	42.38
727.1	99.72
727.281	21.9
727.461	62.86
727.642	21.9
727.823	46.47
728.004	-27.25
728.184	89.48
728.365	-19.06
728.546	62.86
728.726	23.95
728.907	34.19
729.087	-19.06
729.268	71.05
729.449	40.33
729.629	-41.59
729.81	34.19
729.99	56.71
730.171	17.8
730.351	1.42
730.532	95.62
730.712	122.25
730.893	73.1
731.073	66.95
731.253	-35.45
731.434	38.28
731.614	15.75
731.795	-2.68
731.975	73.1
732.155	5.51
732.336	-10.87
732.516	54.67
732.696	85.38
732.876	56.71
733.057	17.8
733.237	23.95
733.417	44.43
733.597	19.85
733.778	36.23
733.958	17.8
734.138	30.09
734.318	44.43
734.498	15.75
734.678	69
734.858	23.95
735.038	38.28
735.218	-57.97
735.398	155.02
735.579	48.52
735.759	46.47
735.939	17.8
736.119	58.76
736.298	40.33
736.478	-57.97
736.658	25.99
736.838	69
737.018	66.95
737.198	99.72
737.378	-12.92
737.558	73.1
737.738	-0.63
737.917	71.05
738.097	5.51
738.277	75.14
738.457	83.34
738.637	71.05
738.816	-51.83
738.996	48.52
739.176	30.09
739.355	19.85
739.535	79.24
739.715	105.86
739.894	34.19
740.074	50.57
740.254	-8.82
740.433	62.86
740.613	38.28
740.792	9.61
740.972	46.47
741.151	103.82
741.331	73.1
741.51	-19.06
741.69	73.1
741.869	-17.01
742.049	56.71
742.228	38.28
742.408	-8.82
742.587	40.33
742.766	97.67
742.946	5.51
743.125	-47.73
743.305	81.29
743.484	44.43
743.663	64.9
743.842	56.71
744.022	64.9
744.201	46.47
744.38	81.29
744.56	17.8
744.739	97.67
744.918	-10.87
745.097	17.8
745.276	38.28
745.455	44.43
745.635	13.71
745.814	83.34
745.993	56.71
746.172	114.06
746.351	5.51
746.53	30.09
746.709	15.75
746.888	42.38
747.067	5.51
747.246	-14.97
747.425	30.09
747.604	17.8
747.783	93.58
747.962	38.28
748.141	5.51
748.32	-14.97
748.499	112.01
748.677	-27.25
748.856	50.57
749.035	62.86
749.214	38.28
749.393	34.19
749.572	50.57
749.75	97.67
749.929	5.51
750.108	56.71
750.287	62.86
750.465	-23.16
750.644	23.95
750.823	30.09
751.001	79.24
751.18	54.67
751.359	99.72
751.537	62.86
751.716	99.72
751.894	54.67
752.073	-72.31
752.251	-2.68
752.43	71.05
752.609	62.86
752.787	-8.82
752.966	13.71
753.144	44.43
753.322	25.99
753.501	36.23
753.679	50.57
753.858	42.38
754.036	38.28
754.215	75.14
754.393	38.28
754.571	23.95
754.75	54.67
754.928	50.57
755.106	5.51
755.284	-43.64
755.463	-2.68
755.641	73.1
755.819	64.9
755.997	34.19
756.176	64.9
756.354	46.47
756.532	69
756.71	116.1
756.888	56.71
757.066	69
757.245	60.81
757.423	93.58
757.601	69
757.779	-2.68
757.957	7.56
758.135	5.51
758.313	-10.87
758.491	54.67
758.669	83.34
758.847	-14.97
759.025	120.2
759.203	62.86
759.381	23.95
759.559	75.14
759.737	38.28
759.915	34.19
760.092	64.9
760.27	23.95
760.448	122.25
760.626	34.19
760.804	-25.21
760.981	-2.68
761.159	46.47
761.337	62.86
761.515	136.58
761.692	30.09
761.87	46.47
762.048	122.25
762.226	75.14
762.403	38.28
762.581	13.71
762.759	25.99
762.936	46.47
763.114	32.14
763.291	79.24
763.469	83.34
763.647	44.43
763.824	-60.02
764.002	73.1
764.179	62.86
764.357	-31.35
764.534	87.43
764.712	62.86
764.889	15.75
765.066	25.99
765.244	73.1
765.421	9.61
765.599	62.86
765.776	17.8
765.953	46.47
766.131	-10.87
766.308	-31.35
766.485	46.47
766.663	13.71
766.84	91.53
767.017	48.52
767.194	28.04
767.372	77.19
767.549	140.68
767.726	-37.49
767.903	56.71
768.081	38.28
768.258	46.47
768.435	1.42
768.612	136.58
768.789	42.38
768.966	73.1
769.143	38.28
769.32	15.75
769.497	75.14
769.674	13.71
769.851	50.57
770.028	38.28
770.205	-29.3
770.382	-0.63
770.559	79.24
770.736	-25.21
770.913	79.24
771.09	30.09
771.267	-19.06
771.444	-12.92
771.621	1.42
771.798	34.19
771.975	30.09
772.151	9.61
772.328	32.14
772.505	73.1
772.682	34.19
772.859	-21.11
773.035	-49.78
773.212	54.67
773.389	36.23
773.565	25.99
773.742	32.14
773.919	-6.77
774.096	7.56
774.272	-8.82
774.449	36.23
774.625	38.28
774.802	-25.21
774.979	40.33
775.155	-23.16
775.332	75.14
775.508	66.95
775.685	66.95
775.861	7.56
776.038	11.66
776.214	79.24
776.391	9.61
776.567	21.9
776.744	15.75
776.92	62.86
777.096	-55.93
777.273	38.28
777.449	42.38
777.626	21.9
777.802	91.53
777.978	13.71
778.155	32.14
778.331	42.38
778.507	58.76
778.683	25.99
778.86	-25.21
779.036	-2.68
779.212	42.38
779.388	13.71
779.565	25.99
779.741	66.95
779.917	30.09
780.093	71.05
780.269	48.52
780.445	79.24
780.621	48.52
780.797	-8.82
780.974	38.28
781.15	46.47
781.326	95.62
781.502	-19.06
781.678	64.9
781.854	-29.3
782.03	30.09
782.206	-2.68
782.382	62.86
782.558	13.71
782.733	75.14
782.909	-8.82
783.085	-66.17
783.261	-27.25
783.437	66.95
783.613	34.19
783.789	44.43
783.965	5.51
784.14	56.71
784.316	-14.97
784.492	71.05
784.668	11.66
784.843	5.51
785.019	-21.11
785.195	-17.01
785.371	81.29
785.546	-27.25
785.722	50.57
785.898	-6.77
786.073	30.09
786.249	30.09
786.424	-33.4
786.6	30.09
786.776	32.14
786.951	32.14
787.127	116.1
787.302	132.49
787.478	-6.77
787.653	17.8
787.829	13.71
788.004	5.51
788.18	-25.21
788.355	48.52
788.531	62.86
788.706	13.71
788.881	58.76
789.057	34.19
789.232	71.05
789.408	38.28
789.583	36.23
789.758	36.23
789.934	93.58
790.109	40.33
790.284	-49.78
790.459	40.33
790.635	13.71
790.81	95.62
790.985	7.56
791.16	46.47
791.336	46.47
791.511	13.71
791.686	-8.82
791.861	93.58
792.036	-14.97
792.211	66.95
792.387	107.91
792.562	155.02
792.737	75.14
792.912	7.56
793.087	54.67
793.262	25.99
793.437	25.99
793.612	73.1
793.787	30.09
793.962	128.39
794.137	-4.73
794.312	23.95
794.487	32.14
794.662	73.1
794.837	-0.63
795.011	-23.16
795.186	30.09
795.361	36.23
795.536	46.47
795.711	146.82
795.886	-8.82
796.06	128.39
796.235	-31.35
796.41	-8.82
796.585	54.67
796.76	23.95
796.934	46.47
797.109	73.1
797.284	44.43
797.458	34.19
797.633	-12.92
797.808	25.99
797.982	-2.68
798.157	-6.77
798.332	-45.69
798.506	75.14
798.681	71.05
798.855	-35.45
799.03	50.57
799.204	-19.06
799.379	50.57
799.553	62.86
799.728	54.67
799.902	-23.16
800.077	56.71
800.251	54.67
800.426	62.86
800.6	17.8
800.775	21.9
800.949	44.43
801.123	66.95
801.298	30.09
801.472	25.99
801.647	-10.87
801.821	50.57
801.995	-33.4
802.169	62.86
802.344	13.71
802.518	32.14
802.692	23.95
802.867	-8.82
803.041	50.57
803.215	-33.4
803.389	40.33
803.563	-23.16
803.737	120.2
803.912	9.61
804.086	64.9
804.26	30.09
804.434	77.19
804.608	128.39
804.782	-25.21
804.956	13.71
805.13	28.04
805.304	50.57
805.478	25.99
805.652	9.61
805.826	21.9
806	71.05
806.174	34.19
806.348	21.9
806.522	7.56
806.696	25.99
806.87	-43.64
807.044	48.52
807.218	13.71
807.392	79.24
807.566	21.9
807.739	66.95
807.913	42.38
808.087	42.38
808.261	13.71
808.435	13.71
808.608	71.05
808.782	-35.45
808.956	105.86
809.13	34.19
809.303	46.47
809.477	7.56
809.651	81.29
809.824	11.66
809.998	66.95
810.172	5.51
810.345	120.2
810.519	-6.77
810.692	15.75
810.866	95.62
811.04	-41.59
811.213	5.51
811.387	-12.92
811.56	46.47
811.734	62.86
811.907	5.51
812.081	50.57
812.254	71.05
812.428	9.61
812.601	5.51
812.774	40.33
812.948	21.9
813.121	9.61
813.295	46.47
813.468	-2.68
813.641	-2.68
813.815	73.1
813.988	21.9
814.161	-0.63
814.335	97.67
814.508	-2.68
814.681	-25.21
814.854	-2.68
815.028	-43.64
815.201	54.67
815.374	30.09
815.547	30.09
815.72	54.67
815.894	13.71
816.067	23.95
816.24	-6.77
816.413	44.43
816.586	13.71
816.759	38.28
816.932	81.29
817.105	23.95
817.278	32.14
817.452	-39.54
817.625	144.78
817.798	40.33
817.971	64.9
818.144	56.71
818.317	48.52
818.49	38.28
818.662	46.47
818.835	44.43
819.008	56.71
819.181	1.42
819.354	69
819.527	15.75
819.7	1.42
819.873	69
820.046	-0.63
820.218	77.19
820.391	48.52
820.564	19.85
820.737	38.28
820.909	13.71
821.082	93.58
821.255	-4.73
821.428	54.67
821.6	34.19
821.773	79.24
821.946	54.67
822.118	34.19
822.291	21.9
822.464	54.67
822.636	-2.68
822.809	-27.25
822.982	30.09
823.154	30.09
823.327	-31.35
823.499	66.95
823.672	87.43
823.844	87.43
824.017	89.48
824.189	19.85
824.362	69
824.534	46.47
824.707	56.71
824.879	15.75
825.052	99.72
825.224	66.95
825.396	99.72
825.569	75.14
825.741	-23.16
825.914	44.43
826.086	46.47
826.258	83.34
826.431	83.34
826.603	103.82
826.775	50.57
826.947	-2.68
827.12	5.51
827.292	114.06
827.464	91.53
827.636	109.96
827.809	62.86
827.981	38.28
828.153	62.86
828.325	103.82
828.497	95.62
828.669	-10.87
828.842	38.28
829.014	56.71
829.186	66.95
829.358	54.67
829.53	-10.87
829.702	32.14
829.874	34.19
830.046	42.38
830.218	9.61
830.39	56.71
830.562	15.75
830.734	13.71
830.906	30.09
831.078	21.9
831.25	28.04
831.422	38.28
831.594	50.57
831.766	50.57
831.937	-33.4
832.109	21.9
832.281	28.04
832.453	32.14
832.625	13.71
832.797	71.05
832.968	44.43
833.14	62.86
833.312	23.95
833.484	21.9
833.655	21.9
833.827	-0.63
833.999	-98.93
834.171	-35.45
834.342	58.76
834.514	30.09
834.686	77.19
834.857	146.82
835.029	17.8
835.2	71.05
835.372	46.47
835.544	-4.73
835.715	5.51
835.887	-25.21
836.058	54.67
836.23	46.47
836.401	-29.3
836.573	64.9
836.744	54.67
836.916	7.56
837.087	11.66
837.259	83.34
837.43	38.28
837.602	42.38
837.773	21.9
837.945	73.1
838.116	-2.68
838.287	5.51
838.459	-51.83
838.63	50.57
838.801	46.47
838.973	79.24
839.144	-10.87
839.315	17.8
839.487	25.99
839.658	11.66
839.829	62.86
840	146.82
840.172	30.09
840.343	79.24
840.514	130.44
840.685	9.61
840.856	-10.87
841.027	62.86
841.199	-17.01
841.37	81.29
841.541	58.76
841.712	21.9
841.883	30.09
842.054	112.01
842.225	9.61
842.396	-19.06
842.567	38.28
842.738	7.56
842.909	32.14
843.08	21.9
843.251	48.52
843.422	-0.63
843.593	46.47
843.764	52.62
843.935	54.67
844.106	21.9
844.277	23.95
844.448	1.42
844.619	46.47
844.79	87.43
844.96	-27.25
845.131	23.95
845.302	66.95
845.473	-4.73
845.644	46.47
845.814	38.28
845.985	83.34
846.156	32.14
846.327	52.62
846.497	-6.77
846.668	54.67
846.839	81.29
847.01	21.9
847.18	116.1
847.351	-4.73
847.522	50.57
847.692	-21.11
847.863	99.72
848.033	-2.68
848.204	75.14
848.375	11.66
848.545	62.86
848.716	23.95
848.886	103.82
849.057	64.9
849.227	81.29
849.398	62.86
849.568	30.09
849.739	79.24
849.909	32.14
850.08	81.29
850.25	75.14
850.421	54.67
850.591	105.86
850.761	46.47
850.932	-4.73
851.102	71.05
851.272	13.71
851.443	13.71
851.613	48.52
851.783	15.75
851.954	-41.59
852.124	-6.77
852.294	97.67
852.465	30.09
852.635	81.29
852.805	95.62
852.975	109.96
853.145	23.95
853.316	42.38
853.486	34.19
853.656	36.23
853.826	71.05
853.996	58.76
854.166	-0.63
854.337	81.29
854.507	-31.35
854.677	30.09
854.847	13.71
855.017	19.85
855.187	9.61
855.357	-8.82
855.527	89.48
855.697	9.61
855.867	83.34
856.037	34.19
856.207	9.61
856.377	97.67
856.547	44.43
856.717	13.71
856.887	1.42
857.057	32.14
857.227	-39.54
857.397	71.05
857.566	17.8
857.736	56.71
857.906	54.67
858.076	50.57
858.246	25.99
858.416	73.1
858.585	46.47
858.755	50.57
858.925	79.24
859.095	13.71
859.264	34.19
859.434	5.51
859.604	73.1
859.774	36.23
859.943	50.57
860.113	91.53
860.283	62.86
860.452	64.9
860.622	46.47
860.791	15.75
860.961	107.91
861.131	79.24
861.3	-19.06
861.47	79.24
861.639	-6.77
861.809	36.23
861.978	21.9
862.148	17.8
862.318	-31.35
862.487	11.66
862.657	46.47
862.826	40.33
862.995	13.71
863.165	21.9
863.334	5.51
863.504	87.43
863.673	3.47
863.843	25.99
864.012	62.86
864.181	23.95
864.351	7.56
864.52	64.9
864.689	-2.68
864.859	42.38
865.028	42.38
865.197	25.99
865.366	83.34
865.536	-17.01
865.705	-31.35
865.874	-19.06
866.043	13.71
866.213	-14.97
866.382	13.71
866.551	-6.77
866.72	58.76
866.889	38.28
867.059	30.09
867.228	30.09
867.397	56.71
867.566	91.53
867.735	54.67
867.904	54.67
868.073	136.58
868.242	-47.73
868.411	69
868.58	30.09
868.749	7.56
868.918	17.8
869.087	38.28
869.256	73.1
869.425	42.38
869.594	25.99
869.763	91.53
869.932	-21.11
870.101	-25.21
870.27	50.57
870.439	-47.73
870.608	79.24
870.777	62.86
870.945	48.52
871.114	46.47
871.283	95.62
871.452	-6.77
871.621	17.8
871.789	52.62
871.958	-19.06
872.127	69
872.296	38.28
872.464	56.71
872.633	-19.06
872.802	17.8
872.971	89.48
873.139	103.82
873.308	42.38
873.477	17.8
873.645	46.47
873.814	56.71
873.983	81.29
874.151	56.71
874.32	95.62
874.488	25.99
874.657	66.95
874.826	48.52
874.994	5.51
875.163	21.9
875.331	-0.63
875.5	44.43
875.668	87.43
875.837	79.24
876.005	13.71
876.174	-27.25
876.342	130.44
876.51	38.28
876.679	114.06
876.847	40.33
877.016	1.42
877.184	9.61
877.352	23.95
877.521	66.95
877.689	46.47
877.857	-2.68
878.026	81.29
878.194	69
878.362	46.47
878.531	58.76
878.699	64.9
878.867	-43.64
879.036	71.05
879.204	34.19
879.372	48.52
879.54	46.47
879.708	30.09
879.877	89.48
880.045	87.43
880.213	9.61
880.381	5.51
880.549	40.33
880.717	85.38
880.885	103.82
881.054	9.61
881.222	28.04
881.39	-35.45
881.558	9.61
881.726	30.09
881.894	25.99
882.062	56.71
882.23	-45.69
882.398	7.56
882.566	9.61
882.734	64.9
882.902	7.56
883.07	87.43
883.238	52.62
883.406	5.51
883.574	21.9
883.741	32.14
883.909	13.71
884.077	40.33
884.245	83.34
884.413	87.43
884.581	38.28
884.749	71.05
884.916	81.29
885.084	54.67
885.252	83.34
885.42	-35.45
885.587	5.51
885.755	3.47
885.923	58.76
886.091	73.1
886.258	7.56
886.426	32.14
886.594	50.57
886.761	-0.63
886.929	71.05
887.097	15.75
887.264	54.67
887.432	42.38
887.6	25.99
887.767	13.71
887.935	40.33
888.102	38.28
888.27	36.23
888.438	-0.63
888.605	46.47
888.773	87.43
888.94	44.43
889.108	5.51
889.275	40.33
889.443	79.24
889.61	79.24
889.778	66.95
889.945	40.33
890.112	38.28
890.28	-19.06
890.447	50.57
890.615	89.48
890.782	58.76
890.949	89.48
891.117	56.71
891.284	-8.82
891.452	-10.87
891.619	25.99
891.786	1.42
891.953	73.1
892.121	23.95
892.288	21.9
892.455	-19.06
892.623	13.71
892.79	17.8
892.957	42.38
893.124	21.9
893.291	71.05
893.459	-25.21
893.626	75.14
893.793	5.51
893.96	32.14
894.127	-10.87
894.294	-31.35
894.461	-35.45
894.629	21.9
894.796	71.05
894.963	32.14
895.13	62.86
895.297	42.38
895.464	30.09
895.631	38.28
895.798	97.67
895.965	38.28
896.132	95.62
896.299	66.95
896.466	71.05
896.633	62.86
896.8	-31.35
896.967	36.23
897.134	64.9
897.301	79.24
897.467	38.28
897.634	-0.63
897.801	28.04
897.968	25.99
898.135	34.19
898.302	-23.16
898.469	28.04
898.635	99.72
898.802	87.43
898.969	-19.06
899.136	9.61
899.303	60.81
