Data from dark_USB4E013581_00016.txt Node
Date: Wed May 08 15:05:46 EDT 2019
User: dh1006
Spectrometer: USB4E01358
Autoset integration time: false
Trigger mode: 4
Integration Time (sec): 2.925000E-2
Scans to average: 1
Electric dark correction enabled: true
Nonlinearity correction enabled: false
Boxcar width: 0
Stray light correction enabled: false
XAxis mode: Wavelengths
Stop averaging: false
Number of Pixels in Spectrum: 3648
>>>>>Begin Spectral Data<<<<<
176.727	-54.98
176.966	-54.98
177.205	-54.98
177.444	-26.31
177.683	-22.21
177.922	39.23
178.161	4.41
178.4	8.51
178.638	16.7
178.877	31.03
179.116	-14.02
179.355	100.67
179.593	26.94
179.832	59.71
180.071	82.23
180.309	-20.16
180.548	67.9
180.786	-26.31
181.025	78.14
181.263	26.94
181.502	26.94
181.74	86.33
181.979	12.6
182.217	22.84
182.456	22.84
182.694	47.42
182.932	20.79
183.17	10.55
183.409	20.79
183.647	8.51
183.885	22.84
184.123	-20.16
184.361	-1.73
184.6	10.55
184.838	18.75
185.076	43.32
185.314	39.23
185.552	10.55
185.79	59.71
186.028	-3.78
186.266	-20.16
186.503	55.61
186.741	14.65
186.979	6.46
187.217	-9.92
187.455	51.51
187.693	33.08
187.93	-3.78
188.168	2.36
188.406	10.55
188.643	2.36
188.881	53.56
189.119	45.37
189.356	4.41
189.594	-20.16
189.831	10.55
190.069	-20.16
190.306	51.51
190.543	125.24
190.781	-38.6
191.018	24.89
191.256	-11.97
191.493	35.13
191.73	20.79
191.967	39.23
192.205	-1.73
192.442	4.41
192.679	22.84
192.916	18.75
193.153	-5.83
193.39	61.75
193.628	59.71
193.865	22.84
194.102	-5.83
194.339	69.95
194.576	6.46
194.813	-3.78
195.049	10.55
195.286	-11.97
195.523	6.46
195.76	12.6
195.997	-5.83
196.234	61.75
196.47	-67.27
196.707	-22.21
196.944	61.75
197.18	35.13
197.417	-18.12
197.654	-36.55
197.89	76.09
198.127	92.47
198.363	-42.69
198.6	98.62
198.836	61.75
199.073	51.51
199.309	-46.79
199.546	-30.4
199.782	8.51
200.018	67.9
200.255	31.03
200.491	92.47
200.727	31.03
200.963	-26.31
201.199	59.71
201.436	-54.98
201.672	61.75
201.908	20.79
202.144	8.51
202.38	61.75
202.616	10.55
202.852	47.42
203.088	-18.12
203.324	67.9
203.56	57.66
203.796	86.33
204.032	22.84
204.268	39.23
204.503	33.08
204.739	14.65
204.975	-26.31
205.211	-50.88
205.446	-5.83
205.682	76.09
205.918	45.37
206.153	55.61
206.389	-71.36
206.625	-5.83
206.86	43.32
207.096	-3.78
207.331	-54.98
207.567	-7.88
207.802	4.41
208.037	-44.74
208.273	35.13
208.508	14.65
208.744	22.84
208.979	2.36
209.214	12.6
209.449	22.84
209.685	-18.12
209.92	22.84
210.155	-48.84
210.39	-22.21
210.625	2.36
210.86	28.99
211.095	39.23
211.33	22.84
211.565	-9.92
211.8	76.09
212.035	51.51
212.27	-22.21
212.505	6.46
212.74	39.23
212.975	43.32
213.21	10.55
213.444	-36.55
213.679	69.95
213.914	8.51
214.149	28.99
214.383	-30.4
214.618	-3.78
214.853	2.36
215.087	63.8
215.322	8.51
215.556	10.55
215.791	-69.32
216.025	-5.83
216.26	80.19
216.494	-5.83
216.729	-63.17
216.963	59.71
217.197	45.37
217.432	51.51
217.666	-38.6
217.9	18.75
218.135	6.46
218.369	51.51
218.603	26.94
218.837	4.41
219.071	37.18
219.306	67.9
219.54	28.99
219.774	22.84
220.008	35.13
220.242	22.84
220.476	14.65
220.71	-14.02
220.944	53.56
221.178	59.71
221.411	45.37
221.645	-9.92
221.879	-63.17
222.113	51.51
222.347	26.94
222.58	84.28
222.814	35.13
223.048	59.71
223.281	-14.02
223.515	80.19
223.749	-32.45
223.982	71.99
224.216	49.47
224.449	43.32
224.683	-18.12
224.916	45.37
225.15	-26.31
225.383	-28.36
225.617	69.95
225.85	4.41
226.083	14.65
226.317	-20.16
226.55	-26.31
226.783	10.55
227.016	-22.21
227.25	26.94
227.483	-18.12
227.716	61.75
227.949	49.47
228.182	-30.4
228.415	-3.78
228.648	119.1
228.881	35.13
229.114	76.09
229.347	59.71
229.58	-52.93
229.813	35.13
230.046	78.14
230.279	-7.88
230.512	33.08
230.745	71.99
230.977	35.13
231.21	67.9
231.443	-52.93
231.675	18.75
231.908	-71.36
232.141	59.71
232.373	49.47
232.606	20.79
232.839	4.41
233.071	-50.88
233.304	2.36
233.536	-18.12
233.769	26.94
234.001	35.13
234.233	20.79
234.466	26.94
234.698	96.57
234.93	55.61
235.163	0.32
235.395	26.94
235.627	26.94
235.86	-14.02
236.092	8.51
236.324	74.04
236.556	45.37
236.788	4.41
237.02	-18.12
237.252	-30.4
237.484	78.14
237.716	-30.4
237.948	71.99
238.18	51.51
238.412	59.71
238.644	123.19
238.876	59.71
239.108	-36.55
239.34	2.36
239.571	-93.89
239.803	61.75
240.035	0.32
240.267	84.28
240.498	-14.02
240.73	47.42
240.962	74.04
241.193	6.46
241.425	55.61
241.656	26.94
241.888	12.6
242.119	-30.4
242.351	57.66
242.582	63.8
242.814	-18.12
243.045	96.57
243.277	35.13
243.508	-34.5
243.739	-9.92
243.971	-14.02
244.202	76.09
244.433	26.94
244.664	-59.08
244.896	35.13
245.127	6.46
245.358	6.46
245.589	-14.02
245.82	-18.12
246.051	-18.12
246.282	47.42
246.513	2.36
246.744	4.41
246.975	110.91
247.206	80.19
247.437	4.41
247.668	35.13
247.899	35.13
248.129	53.56
248.36	-32.45
248.591	-34.5
248.822	43.32
249.052	117.05
249.283	96.57
249.514	10.55
249.744	4.41
249.975	57.66
250.206	-9.92
250.436	47.42
250.667	-5.83
250.897	6.46
251.128	112.95
251.358	43.32
251.589	-38.6
251.819	55.61
252.049	35.13
252.28	35.13
252.51	-5.83
252.74	45.37
252.971	4.41
253.201	28.99
253.431	47.42
253.661	67.9
253.891	18.75
254.121	-38.6
254.352	4.41
254.582	47.42
254.812	49.47
255.042	43.32
255.272	14.65
255.502	28.99
255.732	8.51
255.962	28.99
256.192	-77.51
256.421	-5.83
256.651	18.75
256.881	33.08
257.111	10.55
257.341	6.46
257.57	18.75
257.8	6.46
258.03	14.65
258.259	39.23
258.489	-1.73
258.719	35.13
258.948	55.61
259.178	16.7
259.407	18.75
259.637	-38.6
259.866	39.23
260.096	-89.8
260.325	-22.21
260.555	57.66
260.784	12.6
261.013	-52.93
261.243	39.23
261.472	-11.97
261.701	35.13
261.931	28.99
262.16	43.32
262.389	-34.5
262.618	2.36
262.847	18.75
263.076	55.61
263.305	108.86
263.535	-44.74
263.764	10.55
263.993	-9.92
264.222	43.32
264.451	51.51
264.679	-11.97
264.908	2.36
265.137	-46.79
265.366	14.65
265.595	57.66
265.824	-9.92
266.053	18.75
266.281	71.99
266.51	-3.78
266.739	76.09
266.967	71.99
267.196	-34.5
267.425	69.95
267.653	-22.21
267.882	-34.5
268.11	2.36
268.339	61.75
268.567	-63.17
268.796	67.9
269.024	-5.83
269.253	2.36
269.481	22.84
269.709	-14.02
269.938	-30.4
270.166	6.46
270.394	37.18
270.623	26.94
270.851	10.55
271.079	26.94
271.307	49.47
271.535	4.41
271.764	-28.36
271.992	63.8
272.22	16.7
272.448	43.32
272.676	-9.92
272.904	47.42
273.132	39.23
273.36	-67.27
273.588	-14.02
273.816	59.71
274.043	31.03
274.271	53.56
274.499	43.32
274.727	20.79
274.955	31.03
275.182	37.18
275.41	51.51
275.638	6.46
275.866	-16.07
276.093	43.32
276.321	14.65
276.548	-22.21
276.776	16.7
277.003	67.9
277.231	14.65
277.458	26.94
277.686	-3.78
277.913	61.75
278.141	104.76
278.368	-11.97
278.595	45.37
278.823	-3.78
279.05	133.43
279.277	14.65
279.505	4.41
279.732	49.47
279.959	4.41
280.186	-14.02
280.413	-11.97
280.641	92.47
280.868	84.28
281.095	57.66
281.322	39.23
281.549	6.46
281.776	69.95
282.003	14.65
282.23	10.55
282.457	53.56
282.683	59.71
282.91	10.55
283.137	12.6
283.364	-16.07
283.591	-3.78
283.818	31.03
284.044	-22.21
284.271	51.51
284.498	8.51
284.724	-54.98
284.951	10.55
285.178	18.75
285.404	0.32
285.631	67.9
285.857	2.36
286.084	94.52
286.31	-5.83
286.537	35.13
286.763	-20.16
286.99	18.75
287.216	55.61
287.442	22.84
287.669	10.55
287.895	-14.02
288.121	35.13
288.347	-1.73
288.574	-3.78
288.8	76.09
289.026	-20.16
289.252	26.94
289.478	18.75
289.704	37.18
289.931	22.84
290.157	-18.12
290.383	65.85
290.609	67.9
290.835	-44.74
291.06	43.32
291.286	-44.74
291.512	47.42
291.738	26.94
291.964	-5.83
292.19	53.56
292.416	108.86
292.641	-16.07
292.867	-3.78
293.093	43.32
293.319	6.46
293.544	121.15
293.77	-24.26
293.995	55.61
294.221	-20.16
294.447	6.46
294.672	10.55
294.898	10.55
295.123	-14.02
295.349	0.32
295.574	-18.12
295.799	-30.4
296.025	-38.6
296.25	-14.02
296.476	18.75
296.701	2.36
296.926	39.23
297.151	2.36
297.377	92.47
297.602	-22.21
297.827	4.41
298.052	-22.21
298.277	-38.6
298.502	10.55
298.727	-16.07
298.953	-18.12
299.178	20.79
299.403	94.52
299.628	41.27
299.852	63.8
300.077	-22.21
300.302	-48.84
300.527	-44.74
300.752	22.84
300.977	35.13
301.202	-38.6
301.426	26.94
301.651	10.55
301.876	12.6
302.101	37.18
302.325	35.13
302.55	2.36
302.775	51.51
302.999	67.9
303.224	49.47
303.448	4.41
303.673	-26.31
303.897	45.37
304.122	26.94
304.346	-38.6
304.571	4.41
304.795	14.65
305.019	24.89
305.244	10.55
305.468	45.37
305.692	39.23
305.917	-1.73
306.141	-1.73
306.365	18.75
306.589	96.57
306.813	35.13
307.038	26.94
307.262	63.8
307.486	59.71
307.71	51.51
307.934	2.36
308.158	26.94
308.382	-30.4
308.606	55.61
308.83	-5.83
309.054	-5.83
309.278	35.13
309.502	28.99
309.725	22.84
309.949	47.42
310.173	4.41
310.397	59.71
310.62	35.13
310.844	16.7
311.068	63.8
311.292	-46.79
311.515	112.95
311.739	0.32
311.962	35.13
312.186	18.75
312.41	31.03
312.633	-46.79
312.857	71.99
313.08	10.55
313.303	63.8
313.527	51.51
313.75	-3.78
313.974	-69.32
314.197	14.65
314.42	43.32
314.644	28.99
314.867	69.95
315.09	2.36
315.313	4.41
315.536	76.09
315.76	18.75
315.983	69.95
316.206	61.75
316.429	22.84
316.652	10.55
316.875	-61.12
317.098	8.51
317.321	76.09
317.544	-11.97
317.767	43.32
317.99	-22.21
318.213	4.41
318.436	0.32
318.658	76.09
318.881	20.79
319.104	-16.07
319.327	-18.12
319.55	10.55
319.772	59.71
319.995	57.66
320.218	8.51
320.44	2.36
320.663	20.79
320.885	45.37
321.108	108.86
321.331	-20.16
321.553	-9.92
321.776	47.42
321.998	-24.26
322.22	18.75
322.443	39.23
322.665	43.32
322.888	37.18
323.11	43.32
323.332	18.75
323.555	18.75
323.777	10.55
323.999	-1.73
324.221	4.41
324.443	4.41
324.666	47.42
324.888	49.47
325.11	61.75
325.332	61.75
325.554	0.32
325.776	18.75
325.998	4.41
326.22	10.55
326.442	69.95
326.664	-1.73
326.886	26.94
327.108	-36.55
327.33	43.32
327.551	-5.83
327.773	35.13
327.995	31.03
328.217	-18.12
328.439	53.56
328.66	14.65
328.882	-3.78
329.104	45.37
329.325	51.51
329.547	80.19
329.769	-5.83
329.99	74.04
330.212	26.94
330.433	84.28
330.655	61.75
330.876	-30.4
331.098	-40.64
331.319	31.03
331.54	43.32
331.762	-24.26
331.983	-36.55
332.204	10.55
332.426	69.95
332.647	2.36
332.868	-11.97
333.089	-3.78
333.311	41.27
333.532	-1.73
333.753	8.51
333.974	-9.92
334.195	39.23
334.416	18.75
334.637	43.32
334.858	78.14
335.079	-22.21
335.3	12.6
335.521	-14.02
335.742	45.37
335.963	35.13
336.184	-18.12
336.405	4.41
336.626	10.55
336.846	37.18
337.067	16.7
337.288	35.13
337.509	43.32
337.729	10.55
337.95	18.75
338.171	31.03
338.391	94.52
338.612	69.95
338.833	69.95
339.053	39.23
339.274	-11.97
339.494	18.75
339.715	69.95
339.935	67.9
340.156	-14.02
340.376	28.99
340.596	53.56
340.817	37.18
341.037	18.75
341.257	2.36
341.478	24.89
341.698	35.13
341.918	63.8
342.138	14.65
342.359	6.46
342.579	26.94
342.799	10.55
343.019	76.09
343.239	-20.16
343.459	-38.6
343.679	90.43
343.899	-40.64
344.119	22.84
344.339	-30.4
344.559	61.75
344.779	-52.93
344.999	14.65
345.219	41.27
345.439	43.32
345.658	4.41
345.878	6.46
346.098	108.86
346.318	16.7
346.537	-30.4
346.757	26.94
346.977	33.08
347.196	28.99
347.416	-9.92
347.636	26.94
347.855	53.56
348.075	53.56
348.294	71.99
348.514	-22.21
348.733	92.47
348.953	-59.08
349.172	31.03
349.392	106.81
349.611	41.27
349.83	14.65
350.05	28.99
350.269	-1.73
350.488	-14.02
350.707	-11.97
350.927	-1.73
351.146	47.42
351.365	43.32
351.584	-20.16
351.803	53.56
352.023	-36.55
352.242	59.71
352.461	35.13
352.68	39.23
352.899	10.55
353.118	26.94
353.337	76.09
353.556	14.65
353.775	49.47
353.993	-18.12
354.212	84.28
354.431	24.89
354.65	28.99
354.869	-11.97
355.088	-5.83
355.306	51.51
355.525	39.23
355.744	-22.21
355.962	28.99
356.181	43.32
356.4	-46.79
356.618	12.6
356.837	-1.73
357.055	-22.21
357.274	39.23
357.492	-24.26
357.711	-61.12
357.929	-24.26
358.148	26.94
358.366	-14.02
358.585	6.46
358.803	100.67
359.021	18.75
359.24	51.51
359.458	10.55
359.676	6.46
359.894	-30.4
360.113	31.03
360.331	10.55
360.549	-44.74
360.767	18.75
360.985	18.75
361.203	47.42
361.421	-30.4
361.639	88.38
361.857	-11.97
362.075	84.28
362.293	20.79
362.511	-26.31
362.729	10.55
362.947	98.62
363.165	-22.21
363.383	-61.12
363.601	2.36
363.819	10.55
364.036	43.32
364.254	-5.83
364.472	74.04
364.689	-9.92
364.907	-30.4
365.125	-5.83
365.342	20.79
365.56	35.13
365.778	12.6
365.995	-5.83
366.213	10.55
366.43	-34.5
366.648	-38.6
366.865	51.51
367.083	26.94
367.3	-14.02
367.517	76.09
367.735	2.36
367.952	-5.83
368.17	92.47
368.387	-14.02
368.604	84.28
368.821	-50.88
369.039	16.7
369.256	-5.83
369.473	84.28
369.69	20.79
369.907	51.51
370.124	43.32
370.341	39.23
370.558	35.13
370.776	96.57
370.993	-75.46
371.21	-5.83
371.426	-5.83
371.643	16.7
371.86	55.61
372.077	-11.97
372.294	43.32
372.511	6.46
372.728	-34.5
372.945	39.23
373.161	57.66
373.378	41.27
373.595	22.84
373.811	33.08
374.028	2.36
374.245	-9.92
374.461	-61.12
374.678	39.23
374.895	-14.02
375.111	2.36
375.328	-26.31
375.544	-5.83
375.761	26.94
375.977	31.03
376.194	-52.93
376.41	84.28
376.626	47.42
376.843	65.85
377.059	-14.02
377.275	22.84
377.492	57.66
377.708	-5.83
377.924	47.42
378.14	-38.6
378.357	12.6
378.573	10.55
378.789	22.84
379.005	20.79
379.221	65.85
379.437	57.66
379.653	-9.92
379.869	53.56
380.085	20.79
380.301	-22.21
380.517	-32.45
380.733	-30.4
380.949	45.37
381.165	22.84
381.381	-67.27
381.597	18.75
381.813	55.61
382.028	26.94
382.244	-14.02
382.46	-26.31
382.676	49.47
382.891	-3.78
383.107	-20.16
383.323	22.84
383.538	-11.97
383.754	2.36
383.969	-36.55
384.185	-5.83
384.4	-18.12
384.616	35.13
384.831	-22.21
385.047	37.18
385.262	10.55
385.478	4.41
385.693	35.13
385.909	-24.26
386.124	39.23
386.339	14.65
386.554	6.46
386.77	-9.92
386.985	-18.12
387.2	-1.73
387.415	-1.73
387.631	47.42
387.846	-5.83
388.061	2.36
388.276	-50.88
388.491	-34.5
388.706	22.84
388.921	14.65
389.136	6.46
389.351	-50.88
389.566	26.94
389.781	26.94
389.996	-28.36
390.211	2.36
390.426	37.18
390.641	59.71
390.855	-28.36
391.07	69.95
391.285	24.89
391.5	45.37
391.714	-46.79
391.929	-71.36
392.144	4.41
392.358	22.84
392.573	18.75
392.788	28.99
393.002	18.75
393.217	-1.73
393.431	59.71
393.646	-46.79
393.86	43.32
394.075	14.65
394.289	12.6
394.504	47.42
394.718	-26.31
394.933	69.95
395.147	31.03
395.361	-63.17
395.576	4.41
395.79	-14.02
396.004	-1.73
396.218	117.05
396.432	65.85
396.647	4.41
396.861	104.76
397.075	51.51
397.289	6.46
397.503	-30.4
397.717	26.94
397.931	14.65
398.145	-26.31
398.359	2.36
398.573	35.13
398.787	22.84
399.001	37.18
399.215	14.65
399.429	35.13
399.643	-36.55
399.857	2.36
400.07	59.71
400.284	28.99
400.498	0.32
400.712	6.46
400.925	37.18
401.139	43.32
401.353	53.56
401.566	53.56
401.78	10.55
401.994	18.75
402.207	69.95
402.421	18.75
402.634	-3.78
402.848	61.75
403.061	45.37
403.275	-14.02
403.488	67.9
403.702	10.55
403.915	-30.4
404.128	35.13
404.342	-9.92
404.555	12.6
404.768	18.75
404.982	-28.36
405.195	51.51
405.408	39.23
405.621	10.55
405.835	59.71
406.048	51.51
406.261	-46.79
406.474	-46.79
406.687	6.46
406.9	10.55
407.113	-26.31
407.326	37.18
407.539	-54.98
407.752	-18.12
407.965	8.51
408.178	-36.55
408.391	-71.36
408.604	-22.21
408.817	4.41
409.029	-26.31
409.242	51.51
409.455	14.65
409.668	67.9
409.881	-22.21
410.093	-26.31
410.306	59.71
410.519	10.55
410.731	57.66
410.944	10.55
411.157	-42.69
411.369	14.65
411.582	18.75
411.794	-14.02
412.007	59.71
412.219	18.75
412.432	10.55
412.644	-32.45
412.857	43.32
413.069	2.36
413.281	39.23
413.494	10.55
413.706	18.75
413.918	-38.6
414.131	100.67
414.343	-11.97
414.555	10.55
414.767	-7.88
414.979	-36.55
415.192	90.43
415.404	10.55
415.616	14.65
415.828	4.41
416.04	59.71
416.252	80.19
416.464	-9.92
416.676	-20.16
416.888	6.46
417.1	-30.4
417.312	-48.84
417.524	18.75
417.736	35.13
417.948	45.37
418.159	86.33
418.371	-30.4
418.583	4.41
418.795	-5.83
419.007	12.6
419.218	94.52
419.43	12.6
419.642	-11.97
419.853	-34.5
420.065	-7.88
420.276	-1.73
420.488	18.75
420.7	-67.27
420.911	-20.16
421.123	67.9
421.334	-5.83
421.546	-83.65
421.757	2.36
421.969	67.9
422.18	76.09
422.391	39.23
422.603	-34.5
422.814	33.08
423.025	55.61
423.237	14.65
423.448	43.32
423.659	4.41
423.87	14.65
424.082	-20.16
424.293	80.19
424.504	80.19
424.715	-38.6
424.926	-65.22
425.137	43.32
425.348	12.6
425.559	-77.51
425.77	20.79
425.981	20.79
426.192	-38.6
426.403	-20.16
426.614	26.94
426.825	10.55
427.036	2.36
427.247	39.23
427.458	20.79
427.668	-20.16
427.879	10.55
428.09	51.51
428.301	31.03
428.511	51.51
428.722	6.46
428.933	-11.97
429.143	41.27
429.354	-28.36
429.565	67.9
429.775	18.75
429.986	-50.88
430.196	4.41
430.407	-14.02
430.617	39.23
430.828	-20.16
431.038	18.75
431.249	53.56
431.459	47.42
431.669	20.79
431.88	-26.31
432.09	-28.36
432.3	51.51
432.511	47.42
432.721	35.13
432.931	10.55
433.141	2.36
433.351	2.36
433.562	55.61
433.772	76.09
433.982	43.32
434.192	2.36
434.402	88.38
434.612	76.09
434.822	18.75
435.032	-5.83
435.242	47.42
435.452	-14.02
435.662	-1.73
435.872	-14.02
436.082	18.75
436.292	-54.98
436.502	24.89
436.711	-7.88
436.921	12.6
437.131	26.94
437.341	26.94
437.551	43.32
437.76	43.32
437.97	0.32
438.18	-30.4
438.389	-24.26
438.599	2.36
438.808	43.32
439.018	76.09
439.228	78.14
439.437	76.09
439.647	-36.55
439.856	53.56
440.066	31.03
440.275	28.99
440.484	53.56
440.694	10.55
440.903	61.75
441.113	-5.83
441.322	-3.78
441.531	8.51
441.741	76.09
441.95	43.32
442.159	-22.21
442.368	26.94
442.577	-46.79
442.787	53.56
442.996	-22.21
443.205	26.94
443.414	84.28
443.623	-77.51
443.832	-42.69
444.041	76.09
444.25	-40.64
444.459	-5.83
444.668	49.47
444.877	2.36
445.086	26.94
445.295	84.28
445.504	-32.45
445.713	-5.83
445.922	37.18
446.13	47.42
446.339	4.41
446.548	26.94
446.757	14.65
446.965	12.6
447.174	-50.88
447.383	108.86
447.591	-30.4
447.8	-18.12
448.009	-48.84
448.217	92.47
448.426	-5.83
448.634	37.18
448.843	4.41
449.051	43.32
449.26	65.85
449.468	26.94
449.677	28.99
449.885	47.42
450.093	-11.97
450.302	-61.12
450.51	92.47
450.719	-18.12
450.927	-14.02
451.135	100.67
451.343	-22.21
451.552	-20.16
451.76	-26.31
451.968	-3.78
452.176	-5.83
452.384	57.66
452.592	20.79
452.8	4.41
453.009	43.32
453.217	86.33
453.425	43.32
453.633	6.46
453.841	-7.88
454.049	51.51
454.257	-9.92
454.464	20.79
454.672	4.41
454.88	-46.79
455.088	-18.12
455.296	-9.92
455.504	-85.7
455.711	35.13
455.919	22.84
456.127	18.75
456.335	-18.12
456.542	53.56
456.75	-5.83
456.958	71.99
457.165	16.7
457.373	-20.16
457.581	-5.83
457.788	-26.31
457.996	10.55
458.203	28.99
458.411	-9.92
458.618	35.13
458.826	20.79
459.033	6.46
459.24	-22.21
459.448	22.84
459.655	37.18
459.863	43.32
460.07	41.27
460.277	-42.69
460.484	26.94
460.692	47.42
460.899	2.36
461.106	31.03
461.313	65.85
461.52	-20.16
461.728	-46.79
461.935	35.13
462.142	35.13
462.349	-65.22
462.556	-3.78
462.763	20.79
462.97	22.84
463.177	2.36
463.384	51.51
463.591	18.75
463.798	-1.73
464.005	-34.5
464.212	31.03
464.418	125.24
464.625	-11.97
464.832	22.84
465.039	-63.17
465.246	-14.02
465.452	2.36
465.659	14.65
465.866	-69.32
466.072	43.32
466.279	35.13
466.486	12.6
466.692	39.23
466.899	76.09
467.105	4.41
467.312	8.51
467.519	-26.31
467.725	76.09
467.931	26.94
468.138	-9.92
468.344	-132.8
468.551	-9.92
468.757	26.94
468.964	18.75
469.17	26.94
469.376	61.75
469.583	65.85
469.789	2.36
469.995	28.99
470.201	80.19
470.408	39.23
470.614	-7.88
470.82	84.28
471.026	33.08
471.232	18.75
471.438	-14.02
471.644	10.55
471.85	12.6
472.056	26.94
472.262	55.61
472.468	31.03
472.674	-9.92
472.88	51.51
473.086	-11.97
473.292	14.65
473.498	61.75
473.704	18.75
473.91	10.55
474.116	63.8
474.321	-44.74
474.527	-18.12
474.733	88.38
474.939	96.57
475.144	45.37
475.35	10.55
475.556	4.41
475.761	-5.83
475.967	28.99
476.173	26.94
476.378	55.61
476.584	43.32
476.789	10.55
476.995	12.6
477.2	31.03
477.406	18.75
477.611	-50.88
477.817	59.71
478.022	22.84
478.227	20.79
478.433	-24.26
478.638	-61.12
478.843	-14.02
479.049	10.55
479.254	18.75
479.459	-14.02
479.664	-14.02
479.87	10.55
480.075	67.9
480.28	39.23
480.485	45.37
480.69	12.6
480.895	16.7
481.1	2.36
481.306	26.94
481.511	-44.74
481.716	10.55
481.921	-40.64
482.126	16.7
482.33	2.36
482.535	47.42
482.74	8.51
482.945	78.14
483.15	51.51
483.355	4.41
483.56	-34.5
483.765	-20.16
483.969	-22.21
484.174	-50.88
484.379	6.46
484.583	-30.4
484.788	4.41
484.993	-36.55
485.197	8.51
485.402	35.13
485.607	-9.92
485.811	2.36
486.016	53.56
486.22	10.55
486.425	-9.92
486.629	45.37
486.834	26.94
487.038	47.42
487.243	20.79
487.447	2.36
487.652	37.18
487.856	-40.64
488.06	51.51
488.265	10.55
488.469	-16.07
488.673	69.95
488.877	10.55
489.082	-9.92
489.286	6.46
489.49	47.42
489.694	-22.21
489.898	-14.02
490.102	28.99
490.307	35.13
490.511	94.52
490.715	20.79
490.919	-18.12
491.123	-22.21
491.327	10.55
491.531	-5.83
491.735	69.95
491.939	20.79
492.143	76.09
492.346	10.55
492.55	-18.12
492.754	47.42
492.958	2.36
493.162	4.41
493.366	20.79
493.569	-30.4
493.773	61.75
493.977	20.79
494.18	22.84
494.384	43.32
494.588	131.39
494.791	-95.94
494.995	6.46
495.199	-46.79
495.402	-5.83
495.606	8.51
495.809	65.85
496.013	47.42
496.216	-38.6
496.42	-32.45
496.623	39.23
496.827	47.42
497.03	18.75
497.233	96.57
497.437	6.46
497.64	10.55
497.843	-20.16
498.047	20.79
498.25	18.75
498.453	6.46
498.656	-22.21
498.86	43.32
499.063	22.84
499.266	10.55
499.469	-46.79
499.672	26.94
499.875	-18.12
500.078	53.56
500.281	8.51
500.484	-5.83
500.687	33.08
500.89	26.94
501.093	2.36
501.296	-22.21
501.499	6.46
501.702	-63.17
501.905	-16.07
502.108	31.03
502.311	28.99
502.514	-9.92
502.716	-87.75
502.919	61.75
503.122	6.46
503.325	67.9
503.527	-26.31
503.73	76.09
503.933	4.41
504.135	-61.12
504.338	-14.02
504.541	-14.02
504.743	51.51
504.946	22.84
505.148	12.6
505.351	69.95
505.553	-11.97
505.756	0.32
505.958	-38.6
506.161	-75.46
506.363	18.75
506.565	-14.02
506.768	-11.97
506.97	14.65
507.172	2.36
507.375	-3.78
507.577	-50.88
507.779	59.71
507.982	22.84
508.184	59.71
508.386	31.03
508.588	28.99
508.79	53.56
508.993	43.32
509.195	-9.92
509.397	57.66
509.599	35.13
509.801	108.86
510.003	-3.78
510.205	-28.36
510.407	41.27
510.609	-20.16
510.811	-22.21
511.013	18.75
511.215	14.65
511.417	26.94
511.618	26.94
511.82	39.23
512.022	10.55
512.224	-22.21
512.426	39.23
512.627	6.46
512.829	31.03
513.031	43.32
513.233	43.32
513.434	-3.78
513.636	39.23
513.838	55.61
514.039	-79.56
514.241	-36.55
514.442	59.71
514.644	28.99
514.845	18.75
515.047	-11.97
515.248	14.65
515.45	45.37
515.651	67.9
515.853	45.37
516.054	-67.27
516.256	-20.16
516.457	-5.83
516.658	39.23
516.86	-14.02
517.061	28.99
517.262	35.13
517.463	10.55
517.665	18.75
517.866	67.9
518.067	31.03
518.268	26.94
518.469	-24.26
518.67	35.13
518.872	26.94
519.073	-18.12
519.274	14.65
519.475	59.71
519.676	-20.16
519.877	-22.21
520.078	86.33
520.279	61.75
520.48	18.75
520.681	26.94
520.881	43.32
521.082	-79.56
521.283	18.75
521.484	-22.21
521.685	67.9
521.886	-46.79
522.086	2.36
522.287	-14.02
522.488	59.71
522.689	39.23
522.889	67.9
523.09	0.32
523.291	-28.36
523.491	18.75
523.692	-63.17
523.892	59.71
524.093	61.75
524.294	12.6
524.494	51.51
524.695	-3.78
524.895	88.38
525.096	-1.73
525.296	-9.92
525.496	-3.78
525.697	-1.73
525.897	43.32
526.098	-26.31
526.298	84.28
526.498	20.79
526.699	4.41
526.899	59.71
527.099	-14.02
527.299	18.75
527.499	28.99
527.7	-36.55
527.9	53.56
528.1	22.84
528.3	-18.12
528.5	39.23
528.7	-1.73
528.9	55.61
529.1	-77.51
529.3	-28.36
529.5	-3.78
529.7	57.66
529.9	47.42
530.1	-5.83
530.3	-3.78
530.5	31.03
530.7	125.24
530.9	67.9
531.1	6.46
531.3	-5.83
531.499	-3.78
531.699	-14.02
531.899	6.46
532.099	-1.73
532.298	65.85
532.498	-5.83
532.698	37.18
532.897	2.36
533.097	63.8
533.297	35.13
533.496	-5.83
533.696	-46.79
533.895	-87.75
534.095	51.51
534.294	14.65
534.494	61.75
534.693	59.71
534.893	-22.21
535.092	55.61
535.292	37.18
535.491	-38.6
535.69	43.32
535.89	8.51
536.089	-18.12
536.288	-3.78
536.488	14.65
536.687	14.65
536.886	33.08
537.085	59.71
537.285	88.38
537.484	96.57
537.683	2.36
537.882	110.91
538.081	-18.12
538.28	18.75
538.479	-18.12
538.678	26.94
538.877	59.71
539.076	43.32
539.275	43.32
539.474	67.9
539.673	-14.02
539.872	-42.69
540.071	26.94
540.27	28.99
540.469	55.61
540.668	-22.21
540.867	28.99
541.065	14.65
541.264	2.36
541.463	-40.64
541.662	28.99
541.861	35.13
542.059	-20.16
542.258	22.84
542.457	-22.21
542.655	10.55
542.854	37.18
543.052	-3.78
543.251	-5.83
543.45	10.55
543.648	-14.02
543.847	49.47
544.045	57.66
544.244	14.65
544.442	59.71
544.641	18.75
544.839	69.95
545.037	-22.21
545.236	-7.88
545.434	18.75
545.632	31.03
545.831	76.09
546.029	35.13
546.227	12.6
546.426	-3.78
546.624	10.55
546.822	-14.02
547.02	24.89
547.218	61.75
547.417	-14.02
547.615	-1.73
547.813	2.36
548.011	22.84
548.209	33.08
548.407	45.37
548.605	-38.6
548.803	-9.92
549.001	26.94
549.199	2.36
549.397	69.95
549.595	14.65
549.793	-1.73
549.991	-9.92
550.189	80.19
550.387	4.41
550.584	18.75
550.782	67.9
550.98	33.08
551.178	53.56
551.376	39.23
551.573	6.46
551.771	-34.5
551.969	-22.21
552.166	26.94
552.364	67.9
552.562	33.08
552.759	18.75
552.957	88.38
553.154	57.66
553.352	45.37
553.55	6.46
553.747	14.65
553.945	-20.16
554.142	2.36
554.339	14.65
554.537	14.65
554.734	20.79
554.932	18.75
555.129	84.28
555.326	-11.97
555.524	-20.16
555.721	-48.84
555.918	-38.6
556.116	84.28
556.313	20.79
556.51	37.18
556.707	4.41
556.904	55.61
557.102	-5.83
557.299	47.42
557.496	31.03
557.693	98.62
557.89	-22.21
558.087	26.94
558.284	61.75
558.481	26.94
558.678	20.79
558.875	76.09
559.072	18.75
559.269	-38.6
559.466	45.37
559.663	2.36
559.86	53.56
560.057	-9.92
560.254	-54.98
560.45	-18.12
560.647	-71.36
560.844	0.32
561.041	-11.97
561.237	43.32
561.434	-5.83
561.631	96.57
561.828	35.13
562.024	10.55
562.221	-22.21
562.418	88.38
562.614	-44.74
562.811	45.37
563.007	10.55
563.204	35.13
563.4	-3.78
563.597	26.94
563.793	22.84
563.99	-22.21
564.186	59.71
564.383	67.9
564.579	22.84
564.775	26.94
564.972	26.94
565.168	53.56
565.365	26.94
565.561	55.61
565.757	-3.78
565.953	76.09
566.15	-20.16
566.346	6.46
566.542	104.76
566.738	6.46
566.934	18.75
567.131	14.65
567.327	-26.31
567.523	14.65
567.719	35.13
567.915	12.6
568.111	43.32
568.307	-50.88
568.503	-24.26
568.699	-22.21
568.895	-16.07
569.091	-30.4
569.287	24.89
569.483	22.84
569.679	-42.69
569.875	0.32
570.07	-1.73
570.266	14.65
570.462	12.6
570.658	-22.21
570.854	45.37
571.049	80.19
571.245	-16.07
571.441	28.99
571.636	6.46
571.832	37.18
572.028	88.38
572.223	-28.36
572.419	4.41
572.615	59.71
572.81	-5.83
573.006	2.36
573.201	26.94
573.397	-14.02
573.592	0.32
573.788	86.33
573.983	78.14
574.179	49.47
574.374	-36.55
574.569	18.75
574.765	-14.02
574.96	2.36
575.156	123.19
575.351	-40.64
575.546	86.33
575.741	67.9
575.937	31.03
576.132	-5.83
576.327	-3.78
576.522	-1.73
576.718	63.8
576.913	18.75
577.108	-18.12
577.303	22.84
577.498	37.18
577.693	-26.31
577.888	-36.55
578.083	4.41
578.278	51.51
578.473	37.18
578.668	-18.12
578.863	20.79
579.058	16.7
579.253	12.6
579.448	63.8
579.643	-59.08
579.838	0.32
580.033	14.65
580.227	67.9
580.422	-5.83
580.617	45.37
580.812	-18.12
581.006	6.46
581.201	82.23
581.396	-3.78
581.591	96.57
581.785	88.38
581.98	18.75
582.175	55.61
582.369	-38.6
582.564	92.47
582.758	4.41
582.953	4.41
583.147	31.03
583.342	-30.4
583.536	6.46
583.731	63.8
583.925	-26.31
584.12	61.75
584.314	-14.02
584.509	-1.73
584.703	37.18
584.897	67.9
585.092	18.75
585.286	51.51
585.48	22.84
585.674	45.37
585.869	78.14
586.063	18.75
586.257	57.66
586.451	-5.83
586.646	-14.02
586.84	-22.21
587.034	10.55
587.228	14.65
587.422	-26.31
587.616	8.51
587.81	69.95
588.004	8.51
588.198	-30.4
588.392	43.32
588.586	16.7
588.78	4.41
588.974	-18.12
589.168	0.32
589.362	22.84
589.556	84.28
589.75	-11.97
589.944	-50.88
590.137	43.32
590.331	-38.6
590.525	10.55
590.719	6.46
590.913	26.94
591.106	-57.03
591.3	28.99
591.494	16.7
591.687	4.41
591.881	51.51
592.075	63.8
592.268	-89.8
592.462	-67.27
592.655	6.46
592.849	43.32
593.043	22.84
593.236	61.75
593.43	16.7
593.623	-36.55
593.817	-26.31
594.01	-1.73
594.203	35.13
594.397	-14.02
594.59	43.32
594.784	45.37
594.977	24.89
595.17	10.55
595.364	-48.84
595.557	-9.92
595.75	-11.97
595.943	71.99
596.137	18.75
596.33	31.03
596.523	69.95
596.716	39.23
596.909	28.99
597.102	18.75
597.296	67.9
597.489	31.03
597.682	12.6
597.875	10.55
598.068	26.94
598.261	-48.84
598.454	76.09
598.647	18.75
598.84	-5.83
599.033	2.36
599.226	18.75
599.419	37.18
599.611	14.65
599.804	14.65
599.997	51.51
600.19	10.55
600.383	35.13
600.576	55.61
600.768	24.89
600.961	39.23
601.154	39.23
601.347	20.79
601.539	10.55
601.732	-65.22
601.925	-1.73
602.117	-14.02
602.31	53.56
602.502	-14.02
602.695	35.13
602.888	0.32
603.08	-3.78
603.273	37.18
603.465	-54.98
603.658	31.03
603.85	35.13
604.043	39.23
604.235	51.51
604.427	18.75
604.62	88.38
604.812	55.61
605.004	-11.97
605.197	26.94
605.389	67.9
605.581	-38.6
605.774	61.75
605.966	76.09
606.158	6.46
606.35	-30.4
606.543	-16.07
606.735	33.08
606.927	43.32
607.119	69.95
607.311	78.14
607.503	4.41
607.695	-30.4
607.887	18.75
608.079	26.94
608.271	-28.36
608.463	-3.78
608.655	31.03
608.847	-16.07
609.039	-1.73
609.231	100.67
609.423	-1.73
609.615	-3.78
609.807	-14.02
609.999	18.75
610.191	-46.79
610.382	24.89
610.574	-1.73
610.766	2.36
610.958	51.51
611.15	26.94
611.341	14.65
611.533	6.46
611.725	4.41
611.916	-18.12
612.108	41.27
612.3	10.55
612.491	-18.12
612.683	67.9
612.874	26.94
613.066	74.04
613.257	26.94
613.449	47.42
613.64	-22.21
613.832	53.56
614.023	18.75
614.215	-63.17
614.406	39.23
614.598	8.51
614.789	-22.21
614.98	-38.6
615.172	-9.92
615.363	2.36
615.554	35.13
615.746	10.55
615.937	86.33
616.128	31.03
616.319	59.71
616.511	6.46
616.702	-52.93
616.893	18.75
617.084	-38.6
617.275	84.28
617.466	35.13
617.658	-1.73
617.849	-28.36
618.04	45.37
618.231	31.03
618.422	6.46
618.613	55.61
618.804	18.75
618.995	-5.83
619.186	14.65
619.377	43.32
619.568	-5.83
619.758	-18.12
619.949	-9.92
620.14	16.7
620.331	31.03
620.522	-22.21
620.713	28.99
620.903	43.32
621.094	137.53
621.285	61.75
621.476	-18.12
621.666	10.55
621.857	6.46
622.048	88.38
622.238	20.79
622.429	31.03
622.62	18.75
622.81	26.94
623.001	10.55
623.191	35.13
623.382	92.47
623.572	18.75
623.763	6.46
623.953	14.65
624.144	-20.16
624.334	20.79
624.525	39.23
624.715	-32.45
624.905	18.75
625.096	-9.92
625.286	-30.4
625.477	45.37
625.667	10.55
625.857	35.13
626.047	2.36
626.238	78.14
626.428	18.75
626.618	80.19
626.808	14.65
626.999	94.52
627.189	-26.31
627.379	6.46
627.569	-11.97
627.759	20.79
627.949	59.71
628.139	-9.92
628.329	65.85
628.519	6.46
628.709	-46.79
628.899	61.75
629.089	-50.88
629.279	-44.74
629.469	14.65
629.659	-5.83
629.849	28.99
630.039	-54.98
630.229	28.99
630.419	-26.31
630.609	-20.16
630.798	108.86
630.988	35.13
631.178	22.84
631.368	26.94
631.557	20.79
631.747	-22.21
631.937	45.37
632.127	22.84
632.316	26.94
632.506	20.79
632.696	24.89
632.885	18.75
633.075	67.9
633.264	8.51
633.454	-24.26
633.643	-38.6
633.833	33.08
634.022	-87.75
634.212	94.52
634.401	10.55
634.591	-14.02
634.78	98.62
634.97	53.56
635.159	57.66
635.348	-61.12
635.538	-14.02
635.727	76.09
635.916	10.55
636.106	59.71
636.295	-30.4
636.484	35.13
636.674	10.55
636.863	26.94
637.052	26.94
637.241	26.94
637.43	6.46
637.619	67.9
637.809	-5.83
637.998	33.08
638.187	51.51
638.376	55.61
638.565	-5.83
638.754	67.9
638.943	14.65
639.132	-30.4
639.321	16.7
639.51	-1.73
639.699	43.32
639.888	12.6
640.077	41.27
640.266	-30.4
640.455	18.75
640.643	-5.83
640.832	-3.78
641.021	0.32
641.21	6.46
641.399	12.6
641.587	18.75
641.776	26.94
641.965	59.71
642.154	63.8
642.342	-52.93
642.531	102.71
642.72	-3.78
642.908	10.55
643.097	-30.4
643.286	53.56
643.474	-14.02
643.663	10.55
643.851	14.65
644.04	-1.73
644.228	39.23
644.417	-1.73
644.605	35.13
644.794	31.03
644.982	20.79
645.171	0.32
645.359	59.71
645.547	41.27
645.736	26.94
645.924	39.23
646.112	-26.31
646.301	-24.26
646.489	-18.12
646.677	14.65
646.866	43.32
647.054	53.56
647.242	10.55
647.43	51.51
647.618	35.13
647.807	10.55
647.995	22.84
648.183	14.65
648.371	-14.02
648.559	100.67
648.747	6.46
648.935	10.55
649.123	67.9
649.311	10.55
649.499	67.9
649.687	-11.97
649.875	76.09
650.063	-30.4
650.251	53.56
650.439	67.9
650.627	22.84
650.815	22.84
651.003	-36.55
651.191	53.56
651.378	28.99
651.566	-5.83
651.754	80.19
651.942	59.71
652.13	69.95
652.317	18.75
652.505	31.03
652.693	-9.92
652.88	61.75
653.068	-18.12
653.256	18.75
653.443	-22.21
653.631	-3.78
653.819	0.32
654.006	-18.12
654.194	12.6
654.381	-22.21
654.569	-30.4
654.756	-18.12
654.944	59.71
655.131	76.09
655.319	12.6
655.506	39.23
655.693	37.18
655.881	-7.88
656.068	65.85
656.256	-79.56
656.443	26.94
656.63	31.03
656.818	51.51
657.005	71.99
657.192	2.36
657.379	37.18
657.567	94.52
657.754	-26.31
657.941	-5.83
658.128	61.75
658.315	76.09
658.502	96.57
658.69	102.71
658.877	-9.92
659.064	39.23
659.251	-3.78
659.438	-20.16
659.625	63.8
659.812	12.6
659.999	-11.97
660.186	108.86
660.373	-28.36
660.56	-9.92
660.747	-5.83
660.934	18.75
661.121	-67.27
661.308	-14.02
661.494	8.51
661.681	-22.21
661.868	-54.98
662.055	88.38
662.242	12.6
662.428	-11.97
662.615	22.84
662.802	63.8
662.989	71.99
663.175	14.65
663.362	2.36
663.549	39.23
663.735	61.75
663.922	-3.78
664.109	-22.21
664.295	43.32
664.482	-28.36
664.668	100.67
664.855	53.56
665.041	10.55
665.228	51.51
665.414	-63.17
665.601	-14.02
665.787	6.46
665.974	35.13
666.16	45.37
666.347	26.94
666.533	47.42
666.719	-14.02
666.906	-36.55
667.092	22.84
667.278	51.51
667.465	80.19
667.651	37.18
667.837	6.46
668.023	53.56
668.21	55.61
668.396	-22.21
668.582	22.84
668.768	22.84
668.954	8.51
669.14	26.94
669.327	78.14
669.513	61.75
669.699	-5.83
669.885	12.6
670.071	84.28
670.257	-32.45
670.443	-54.98
670.629	-3.78
670.815	10.55
671.001	59.71
671.187	76.09
671.373	26.94
671.559	80.19
671.744	-59.08
671.93	10.55
672.116	20.79
672.302	43.32
672.488	47.42
672.674	78.14
672.859	-22.21
673.045	-5.83
673.231	-30.4
673.417	6.46
673.602	-52.93
673.788	108.86
673.974	35.13
674.159	4.41
674.345	76.09
674.531	47.42
674.716	18.75
674.902	112.95
675.087	-14.02
675.273	18.75
675.459	53.56
675.644	31.03
675.83	-14.02
676.015	10.55
676.2	4.41
676.386	55.61
676.571	61.75
676.757	-38.6
676.942	-18.12
677.128	4.41
677.313	28.99
677.498	-16.07
677.684	63.8
677.869	35.13
678.054	43.32
678.24	2.36
678.425	10.55
678.61	-59.08
678.795	2.36
678.98	-34.5
679.166	10.55
679.351	53.56
679.536	2.36
679.721	14.65
679.906	14.65
680.091	-11.97
680.276	37.18
680.461	10.55
680.647	2.36
680.832	-30.4
681.017	-3.78
681.202	41.27
681.387	-3.78
681.572	2.36
681.756	12.6
681.941	-18.12
682.126	14.65
682.311	80.19
682.496	51.51
682.681	8.51
682.866	18.75
683.051	-11.97
683.235	76.09
683.42	-24.26
683.605	22.84
683.79	4.41
683.974	67.9
684.159	18.75
684.344	-3.78
684.529	-14.02
684.713	-11.97
684.898	-79.56
685.083	-9.92
685.267	26.94
685.452	20.79
685.636	35.13
685.821	26.94
686.005	51.51
686.19	4.41
686.375	-22.21
686.559	35.13
686.744	4.41
686.928	26.94
687.112	26.94
687.297	53.56
687.481	-54.98
687.666	4.41
687.85	67.9
688.034	24.89
688.219	63.8
688.403	-11.97
688.587	51.51
688.772	10.55
688.956	-18.12
689.14	12.6
689.324	10.55
689.509	35.13
689.693	31.03
689.877	31.03
690.061	102.71
690.245	112.95
690.43	-5.83
690.614	51.51
690.798	10.55
690.982	47.42
691.166	31.03
691.35	-26.31
691.534	28.99
691.718	-1.73
691.902	63.8
692.086	-7.88
692.27	26.94
692.454	-5.83
692.638	2.36
692.822	2.36
693.006	-28.36
693.19	-14.02
693.373	-46.79
693.557	24.89
693.741	49.47
693.925	-59.08
694.109	31.03
694.293	-30.4
694.476	31.03
694.66	-24.26
694.844	43.32
695.027	82.23
695.211	-11.97
695.395	14.65
695.578	24.89
695.762	-18.12
695.946	35.13
696.129	20.79
696.313	-18.12
696.497	117.05
696.68	80.19
696.864	2.36
697.047	4.41
697.231	10.55
697.414	-48.84
697.598	-18.12
697.781	-42.69
697.965	57.66
698.148	108.86
698.331	63.8
698.515	10.55
698.698	10.55
698.881	10.55
699.065	102.71
699.248	10.55
699.431	18.75
699.615	-11.97
699.798	96.57
699.981	-7.88
700.165	0.32
700.348	55.61
700.531	-24.26
700.714	35.13
700.897	2.36
701.08	31.03
701.264	-20.16
701.447	6.46
701.63	51.51
701.813	-34.5
701.996	-9.92
702.179	18.75
702.362	28.99
702.545	26.94
702.728	6.46
702.911	39.23
703.094	-30.4
703.277	26.94
703.46	10.55
703.643	35.13
703.826	12.6
704.009	-1.73
704.191	-38.6
704.374	35.13
704.557	78.14
704.74	51.51
704.923	18.75
705.106	35.13
705.288	-5.83
705.471	-77.51
705.654	8.51
705.837	-18.12
706.019	14.65
706.202	-18.12
706.385	16.7
706.567	65.85
706.75	12.6
706.932	31.03
707.115	51.51
707.298	26.94
707.48	80.19
707.663	51.51
707.845	-42.69
708.028	26.94
708.21	0.32
708.393	76.09
708.575	-42.69
708.758	-7.88
708.94	6.46
709.123	35.13
709.305	84.28
709.487	0.32
709.67	63.8
709.852	22.84
710.034	20.79
710.217	-30.4
710.399	35.13
710.581	8.51
710.764	-1.73
710.946	-1.73
711.128	104.76
711.31	31.03
711.492	-22.21
711.675	26.94
711.857	39.23
712.039	-5.83
712.221	-11.97
712.403	4.41
712.585	-36.55
712.767	39.23
712.949	2.36
713.131	-9.92
713.314	-20.16
713.496	-38.6
713.678	0.32
713.86	47.42
714.041	18.75
714.223	12.6
714.405	2.36
714.587	-30.4
714.769	-69.32
714.951	35.13
715.133	-14.02
715.315	35.13
715.497	10.55
715.678	61.75
715.86	24.89
716.042	39.23
716.224	26.94
716.406	-11.97
716.587	47.42
716.769	-3.78
716.951	6.46
717.132	-14.02
717.314	65.85
717.496	-38.6
717.677	2.36
717.859	-14.02
718.041	26.94
718.222	47.42
718.404	-3.78
718.585	2.36
718.767	-30.4
718.948	59.71
719.13	-38.6
719.311	67.9
719.493	2.36
719.674	35.13
719.856	-3.78
720.037	33.08
720.219	18.75
720.4	63.8
720.581	8.51
720.763	-7.88
720.944	18.75
721.125	-9.92
721.307	-52.93
721.488	53.56
721.669	-3.78
721.85	43.32
722.032	4.41
722.213	-11.97
722.394	2.36
722.575	47.42
722.756	-3.78
722.938	18.75
723.119	10.55
723.3	45.37
723.481	2.36
723.662	-48.84
723.843	-61.12
724.024	18.75
724.205	26.94
724.386	18.75
724.567	28.99
724.748	-44.74
724.929	67.9
725.11	-3.78
725.291	47.42
725.472	20.79
725.653	43.32
725.834	-1.73
726.015	35.13
726.196	10.55
726.377	10.55
726.557	59.71
726.738	10.55
726.919	-30.4
727.1	10.55
727.281	26.94
727.461	2.36
727.642	14.65
727.823	41.27
728.004	35.13
728.184	-14.02
728.365	20.79
728.546	26.94
728.726	53.56
728.907	-14.02
729.087	-22.21
729.268	35.13
729.449	12.6
729.629	43.32
729.81	28.99
729.99	-26.31
730.171	-38.6
730.351	61.75
730.532	104.76
730.712	-9.92
730.893	-1.73
731.073	-34.5
731.253	12.6
731.434	71.99
731.614	-59.08
731.795	6.46
731.975	-5.83
732.155	43.32
732.336	-9.92
732.516	47.42
732.696	-63.17
732.876	-14.02
733.057	-1.73
733.237	59.71
733.417	28.99
733.597	43.32
733.778	35.13
733.958	18.75
734.138	-38.6
734.318	37.18
734.498	43.32
734.678	-30.4
734.858	-5.83
735.038	16.7
735.218	39.23
735.398	-5.83
735.579	92.47
735.759	-5.83
735.939	16.7
736.119	14.65
736.298	55.61
736.478	26.94
736.658	-9.92
736.838	12.6
737.018	-14.02
737.198	37.18
737.378	8.51
737.558	67.9
737.738	-22.21
737.917	51.51
738.097	-34.5
738.277	10.55
738.457	-57.03
738.637	67.9
738.816	-9.92
738.996	26.94
739.176	39.23
739.355	-59.08
739.535	4.41
739.715	28.99
739.894	6.46
740.074	-11.97
740.254	12.6
740.433	-14.02
740.613	-7.88
740.792	20.79
740.972	10.55
741.151	39.23
741.331	-36.55
741.51	-40.64
741.69	53.56
741.869	12.6
742.049	35.13
742.228	-20.16
742.408	63.8
742.587	35.13
742.766	-63.17
742.946	67.9
743.125	-5.83
743.305	-54.98
743.484	-52.93
743.663	33.08
743.842	10.55
744.022	59.71
744.201	74.04
744.38	31.03
744.56	14.65
744.739	61.75
744.918	20.79
745.097	18.75
745.276	2.36
745.455	51.51
745.635	31.03
745.814	-22.21
745.993	14.65
746.172	26.94
746.351	31.03
746.53	39.23
746.709	35.13
746.888	-9.92
747.067	-11.97
747.246	76.09
747.425	88.38
747.604	14.65
747.783	24.89
747.962	65.85
748.141	31.03
748.32	18.75
748.499	86.33
748.677	2.36
748.856	-5.83
749.035	57.66
749.214	43.32
749.393	71.99
749.572	4.41
749.75	22.84
749.929	-65.22
750.108	2.36
750.287	-22.21
750.465	-36.55
750.644	-36.55
750.823	-3.78
751.001	-36.55
751.18	35.13
751.359	-18.12
751.537	86.33
751.716	-34.5
751.894	51.51
752.073	12.6
752.251	28.99
752.43	-14.02
752.609	-63.17
752.787	-48.84
752.966	-63.17
753.144	-65.22
753.322	-46.79
753.501	-18.12
753.679	14.65
753.858	4.41
754.036	4.41
754.215	2.36
754.393	-44.74
754.571	18.75
754.75	2.36
754.928	51.51
755.106	-30.4
755.284	-26.31
755.463	76.09
755.641	-34.5
755.819	12.6
755.997	-1.73
756.176	-40.64
756.354	6.46
756.532	-22.21
756.71	100.67
756.888	-9.92
757.066	4.41
757.245	100.67
757.423	-40.64
757.601	14.65
757.779	53.56
757.957	20.79
758.135	26.94
758.313	-87.75
758.491	-3.78
758.669	45.37
758.847	4.41
759.025	8.51
759.203	22.84
759.381	10.55
759.559	43.32
759.737	2.36
759.915	-28.36
760.092	20.79
760.27	-11.97
760.448	43.32
760.626	92.47
760.804	-22.21
760.981	-36.55
761.159	8.51
761.337	-11.97
761.515	39.23
761.692	12.6
761.87	-52.93
762.048	63.8
762.226	6.46
762.403	-34.5
762.581	86.33
762.759	31.03
762.936	-20.16
763.114	16.7
763.291	43.32
763.469	2.36
763.647	-50.88
763.824	-34.5
764.002	-9.92
764.179	35.13
764.357	65.85
764.534	61.75
764.712	2.36
764.889	10.55
765.066	-22.21
765.244	-54.98
765.421	57.66
765.599	16.7
765.776	14.65
765.953	37.18
766.131	20.79
766.308	-38.6
766.485	86.33
766.663	-28.36
766.84	102.71
767.017	31.03
767.194	84.28
767.372	41.27
767.549	53.56
767.726	-54.98
767.903	22.84
768.081	-30.4
768.258	10.55
768.435	24.89
768.612	41.27
768.789	-34.5
768.966	31.03
769.143	-16.07
769.32	-81.6
769.497	47.42
769.674	-46.79
769.851	-14.02
770.028	39.23
770.205	74.04
770.382	41.27
770.559	47.42
770.736	28.99
770.913	2.36
771.09	35.13
771.267	18.75
771.444	24.89
771.621	18.75
771.798	-5.83
771.975	59.71
772.151	-28.36
772.328	47.42
772.505	6.46
772.682	2.36
772.859	55.61
773.035	39.23
773.212	84.28
773.389	20.79
773.565	47.42
773.742	-3.78
773.919	26.94
774.096	55.61
774.272	20.79
774.449	12.6
774.625	51.51
774.802	16.7
774.979	2.36
775.155	2.36
775.332	-42.69
775.508	-32.45
775.685	22.84
775.861	65.85
776.038	76.09
776.214	10.55
776.391	-26.31
776.567	-3.78
776.744	2.36
776.92	-16.07
777.096	-54.98
777.273	-32.45
777.449	20.79
777.626	-28.36
777.802	39.23
777.978	-16.07
778.155	26.94
778.331	-30.4
778.507	55.61
778.683	4.41
778.86	45.37
779.036	-44.74
779.212	84.28
779.388	-11.97
779.565	37.18
779.741	39.23
779.917	28.99
780.093	-7.88
780.269	2.36
780.445	57.66
780.621	51.51
780.797	18.75
780.974	-14.02
781.15	33.08
781.326	96.57
781.502	-18.12
781.678	22.84
781.854	18.75
782.03	69.95
782.206	-14.02
782.382	-22.21
782.558	8.51
782.733	24.89
782.909	61.75
783.085	-16.07
783.261	39.23
783.437	67.9
783.613	6.46
783.789	-75.46
783.965	-14.02
784.14	-22.21
784.316	10.55
784.492	59.71
784.668	14.65
784.843	-38.6
785.019	26.94
785.195	26.94
785.371	102.71
785.546	-46.79
785.722	-30.4
785.898	49.47
786.073	6.46
786.249	69.95
786.424	47.42
786.6	28.99
786.776	-3.78
786.951	51.51
787.127	-28.36
787.302	14.65
787.478	-5.83
787.653	-28.36
787.829	10.55
788.004	-40.64
788.18	-3.78
788.355	18.75
788.531	26.94
788.706	51.51
788.881	26.94
789.057	63.8
789.232	-5.83
789.408	6.46
789.583	10.55
789.758	45.37
789.934	53.56
790.109	55.61
790.284	6.46
790.459	2.36
790.635	84.28
790.81	78.14
790.985	59.71
791.16	-59.08
791.336	28.99
791.511	47.42
791.686	41.27
791.861	20.79
792.036	67.9
792.211	22.84
792.387	-32.45
792.562	84.28
792.737	-14.02
792.912	-26.31
793.087	80.19
793.262	28.99
793.437	57.66
793.612	35.13
793.787	53.56
793.962	24.89
794.137	-36.55
794.312	63.8
794.487	18.75
794.662	55.61
794.837	-14.02
795.011	100.67
795.186	-63.17
795.361	-1.73
795.536	10.55
795.711	51.51
795.886	20.79
796.06	82.23
796.235	47.42
796.41	0.32
796.585	-7.88
796.76	10.55
796.934	26.94
797.109	20.79
797.284	-22.21
797.458	2.36
797.633	61.75
797.808	43.32
797.982	14.65
798.157	43.32
798.332	-22.21
798.506	0.32
798.681	-1.73
798.855	-67.27
799.03	-20.16
799.204	28.99
799.379	-1.73
799.553	-52.93
799.728	18.75
799.902	-36.55
800.077	74.04
800.251	59.71
800.426	71.99
800.6	-36.55
800.775	37.18
800.949	-30.4
801.123	2.36
801.298	2.36
801.472	-36.55
801.647	35.13
801.821	-63.17
801.995	84.28
802.169	12.6
802.344	10.55
802.518	53.56
802.692	43.32
802.867	-63.17
803.041	35.13
803.215	-22.21
803.389	2.36
803.563	-14.02
803.737	59.71
803.912	10.55
804.086	18.75
804.26	20.79
804.434	43.32
804.608	43.32
804.782	51.51
804.956	26.94
805.13	24.89
805.304	24.89
805.478	26.94
805.652	-11.97
805.826	31.03
806	-28.36
806.174	4.41
806.348	26.94
806.522	-42.69
806.696	12.6
806.87	2.36
807.044	16.7
807.218	-34.5
807.392	80.19
807.566	63.8
807.739	12.6
807.913	12.6
808.087	-69.32
808.261	24.89
808.435	61.75
808.608	20.79
808.782	-20.16
808.956	31.03
809.13	-18.12
809.303	-38.6
809.477	43.32
809.651	-28.36
809.824	84.28
809.998	53.56
810.172	-14.02
810.345	63.8
810.519	53.56
810.692	24.89
810.866	-16.07
811.04	4.41
811.213	-14.02
811.387	-14.02
811.56	43.32
811.734	6.46
811.907	10.55
812.081	26.94
812.254	35.13
812.428	-26.31
812.601	-20.16
812.774	33.08
812.948	12.6
813.121	2.36
813.295	22.84
813.468	6.46
813.641	55.61
813.815	18.75
813.988	-3.78
814.161	2.36
814.335	45.37
814.508	14.65
814.681	-26.31
814.854	-54.98
815.028	33.08
815.201	24.89
815.374	26.94
815.547	-5.83
815.72	2.36
815.894	-26.31
816.067	2.36
816.24	28.99
816.413	12.6
816.586	14.65
816.759	-44.74
816.932	6.46
817.105	51.51
817.278	39.23
817.452	43.32
817.625	92.47
817.798	14.65
817.971	61.75
818.144	69.95
818.317	53.56
818.49	8.51
818.662	26.94
818.835	10.55
819.008	78.14
819.181	-22.21
819.354	53.56
819.527	31.03
819.7	-18.12
819.873	10.55
820.046	61.75
820.218	59.71
820.391	26.94
820.564	-5.83
820.737	16.7
820.909	-71.36
821.082	63.8
821.255	59.71
821.428	16.7
821.6	-24.26
821.773	51.51
821.946	45.37
822.118	18.75
822.291	18.75
822.464	12.6
822.636	2.36
822.809	10.55
822.982	6.46
823.154	51.51
823.327	-11.97
823.499	10.55
823.672	6.46
823.844	55.61
824.017	26.94
824.189	33.08
824.362	43.32
824.534	-30.4
824.707	26.94
824.879	35.13
825.052	33.08
825.224	43.32
825.396	84.28
825.569	35.13
825.741	6.46
825.914	28.99
826.086	-20.16
826.258	71.99
826.431	-14.02
826.603	22.84
826.775	43.32
826.947	49.47
827.12	71.99
827.292	88.38
827.464	26.94
827.636	-54.98
827.809	31.03
827.981	0.32
828.153	67.9
828.325	76.09
828.497	-1.73
828.669	26.94
828.842	67.9
829.014	14.65
829.186	47.42
829.358	76.09
829.53	-1.73
829.702	22.84
829.874	2.36
830.046	-20.16
830.218	-5.83
830.39	10.55
830.562	-5.83
830.734	20.79
830.906	35.13
831.078	-3.78
831.25	35.13
831.422	-22.21
831.594	22.84
831.766	10.55
831.937	-54.98
832.109	-9.92
832.281	-36.55
832.453	26.94
832.625	14.65
832.797	35.13
832.968	-5.83
833.14	69.95
833.312	-1.73
833.484	-30.4
833.655	22.84
833.827	4.41
833.999	12.6
834.171	-50.88
834.342	6.46
834.514	55.61
834.686	-28.36
834.857	10.55
835.029	-1.73
835.2	43.32
835.372	49.47
835.544	92.47
835.715	-18.12
835.887	18.75
836.058	6.46
836.23	2.36
836.401	33.08
836.573	63.8
836.744	-22.21
836.916	2.36
837.087	37.18
837.259	-22.21
837.43	0.32
837.602	59.71
837.773	43.32
837.945	12.6
838.116	63.8
838.287	84.28
838.459	63.8
838.63	61.75
838.801	-22.21
838.973	-44.74
839.144	-26.31
839.315	39.23
839.487	28.99
839.658	-22.21
839.829	-50.88
840	18.75
840.172	26.94
840.343	12.6
840.514	37.18
840.685	-22.21
840.856	43.32
841.027	43.32
841.199	39.23
841.37	47.42
841.541	-9.92
841.712	76.09
841.883	59.71
842.054	37.18
842.225	4.41
842.396	12.6
842.567	63.8
842.738	37.18
842.909	-18.12
843.08	20.79
843.251	26.94
843.422	14.65
843.593	10.55
843.764	35.13
843.935	4.41
844.106	18.75
844.277	26.94
844.448	28.99
844.619	10.55
844.79	22.84
844.96	26.94
845.131	47.42
845.302	-26.31
845.473	43.32
845.644	26.94
845.814	-14.02
845.985	35.13
846.156	31.03
846.327	31.03
846.497	-14.02
846.668	-7.88
846.839	20.79
847.01	10.55
847.18	108.86
847.351	100.67
847.522	-30.4
847.692	-26.31
847.863	-63.17
848.033	-22.21
848.204	8.51
848.375	2.36
848.545	4.41
848.716	47.42
848.886	6.46
849.057	59.71
849.227	-14.02
849.398	-14.02
849.568	55.61
849.739	67.9
849.909	53.56
850.08	35.13
850.25	35.13
850.421	35.13
850.591	67.9
850.761	35.13
850.932	33.08
851.102	-38.6
851.272	43.32
851.443	14.65
851.613	76.09
851.783	-34.5
851.954	26.94
852.124	67.9
852.294	117.05
852.465	4.41
852.635	-5.83
852.805	51.51
852.975	59.71
853.145	71.99
853.316	-14.02
853.486	53.56
853.656	-9.92
853.826	-1.73
853.996	-14.02
854.166	26.94
854.337	10.55
854.507	22.84
854.677	-18.12
854.847	-67.27
855.017	18.75
855.187	2.36
855.357	-22.21
855.527	80.19
855.697	57.66
855.867	69.95
856.037	49.47
856.207	55.61
856.377	43.32
856.547	-50.88
856.717	33.08
856.887	-9.92
857.057	16.7
857.227	-20.16
857.397	26.94
857.566	37.18
857.736	76.09
857.906	-5.83
858.076	26.94
858.246	-36.55
858.416	67.9
858.585	31.03
858.755	-20.16
858.925	53.56
859.095	-26.31
859.264	41.27
859.434	55.61
859.604	26.94
859.774	-9.92
859.943	-5.83
860.113	35.13
860.283	53.56
860.452	10.55
860.622	47.42
860.791	-28.36
860.961	71.99
861.131	4.41
861.3	-20.16
861.47	-14.02
861.639	53.56
861.809	2.36
861.978	10.55
862.148	47.42
862.318	28.99
862.487	47.42
862.657	18.75
862.826	2.36
862.995	-16.07
863.165	2.36
863.334	14.65
863.504	26.94
863.673	-50.88
863.843	-36.55
864.012	82.23
864.181	2.36
864.351	59.71
864.52	10.55
864.689	53.56
864.859	2.36
865.028	-50.88
865.197	-52.93
865.366	-38.6
865.536	67.9
865.705	-11.97
865.874	-26.31
866.043	22.84
866.213	18.75
866.382	-14.02
866.551	67.9
866.72	-20.16
866.889	53.56
867.059	33.08
867.228	35.13
867.397	-63.17
867.566	59.71
867.735	24.89
867.904	31.03
868.073	71.99
868.242	10.55
868.411	45.37
868.58	4.41
868.749	6.46
868.918	28.99
869.087	10.55
869.256	47.42
869.425	76.09
869.594	10.55
869.763	2.36
869.932	22.84
870.101	65.85
870.27	26.94
870.439	-7.88
870.608	-20.16
870.777	-5.83
870.945	43.32
871.114	8.51
871.283	47.42
871.452	31.03
871.621	47.42
871.789	69.95
871.958	-18.12
872.127	-22.21
872.296	92.47
872.464	71.99
872.633	78.14
872.802	-44.74
872.971	-14.02
873.139	-5.83
873.308	6.46
873.477	51.51
873.645	26.94
873.814	96.57
873.983	59.71
874.151	-5.83
874.32	-14.02
874.488	-28.36
874.657	47.42
874.826	-46.79
874.994	45.37
875.163	-59.08
875.331	12.6
875.5	47.42
875.668	18.75
875.837	65.85
876.005	76.09
876.174	37.18
876.342	26.94
876.51	2.36
876.679	12.6
876.847	43.32
877.016	10.55
877.184	45.37
877.352	-11.97
877.521	26.94
877.689	-75.46
877.857	2.36
878.026	20.79
878.194	-71.36
878.362	-5.83
878.531	35.13
878.699	35.13
878.867	53.56
879.036	-14.02
879.204	20.79
879.372	31.03
879.54	2.36
879.708	-18.12
879.877	20.79
880.045	-22.21
880.213	26.94
880.381	12.6
880.549	117.05
880.717	10.55
880.885	26.94
881.054	35.13
881.222	43.32
881.39	-30.4
881.558	51.51
881.726	98.62
881.894	49.47
882.062	63.8
882.23	22.84
882.398	18.75
882.566	-5.83
882.734	-36.55
882.902	18.75
883.07	65.85
883.238	43.32
883.406	-11.97
883.574	41.27
883.741	10.55
883.909	51.51
884.077	26.94
884.245	78.14
884.413	-16.07
884.581	-42.69
884.749	26.94
884.916	39.23
885.084	-34.5
885.252	12.6
885.42	8.51
885.587	33.08
885.755	-52.93
885.923	51.51
886.091	20.79
886.258	0.32
886.426	18.75
886.594	10.55
886.761	-46.79
886.929	12.6
887.097	16.7
887.264	22.84
887.432	31.03
887.6	10.55
887.767	6.46
887.935	-9.92
888.102	74.04
888.27	-5.83
888.438	43.32
888.605	22.84
888.773	10.55
888.94	14.65
889.108	-52.93
889.275	-34.5
889.443	39.23
889.61	33.08
889.778	-36.55
889.945	53.56
890.112	-28.36
890.28	39.23
890.447	-44.74
890.615	26.94
890.782	2.36
890.949	-34.5
891.117	-16.07
891.284	26.94
891.452	51.51
891.619	61.75
891.786	18.75
891.953	-9.92
892.121	14.65
892.288	-24.26
892.455	117.05
892.623	-26.31
892.79	-9.92
892.957	-5.83
893.124	10.55
893.291	14.65
893.459	6.46
893.626	28.99
893.793	24.89
893.96	51.51
894.127	51.51
894.294	67.9
894.461	-50.88
894.629	-28.36
894.796	-34.5
894.963	12.6
895.13	80.19
895.297	24.89
895.464	39.23
895.631	-44.74
895.798	14.65
895.965	33.08
896.132	84.28
896.299	-104.13
896.466	28.99
896.633	12.6
896.8	76.09
896.967	71.99
897.134	18.75
897.301	51.51
897.467	-5.83
897.634	61.75
897.801	22.84
897.968	-5.83
898.135	2.36
898.302	-46.79
898.469	92.47
898.635	20.79
898.802	39.23
898.969	26.94
899.136	-30.4
899.303	18.75
