Data from dark_USB4E013581_00019.txt Node
Date: Wed May 08 15:05:46 EDT 2019
User: dh1006
Spectrometer: USB4E01358
Autoset integration time: false
Trigger mode: 4
Integration Time (sec): 2.925000E-2
Scans to average: 1
Electric dark correction enabled: true
Nonlinearity correction enabled: false
Boxcar width: 0
Stray light correction enabled: false
XAxis mode: Wavelengths
Stop averaging: false
Number of Pixels in Spectrum: 3648
>>>>>Begin Spectral Data<<<<<
176.727	-86.33
176.966	-86.33
177.205	-86.33
177.444	-6.46
177.683	7.88
177.922	63.17
178.161	34.5
178.4	38.6
178.638	65.22
178.877	-10.55
179.116	-8.51
179.355	36.55
179.593	38.6
179.832	83.65
180.071	93.89
180.309	28.36
180.548	28.36
180.786	28.36
181.025	28.36
181.263	61.12
181.502	75.46
181.74	73.41
181.979	93.89
182.217	61.12
182.456	57.03
182.694	69.32
182.932	52.93
183.17	-6.46
183.409	59.08
183.647	16.07
183.885	46.79
184.123	54.98
184.361	77.51
184.6	48.84
184.838	34.5
185.076	106.18
185.314	79.56
185.552	-24.89
185.79	-53.56
186.028	3.78
186.266	22.21
186.503	-31.03
186.741	11.97
186.979	48.84
187.217	38.6
187.455	77.51
187.693	34.5
187.93	36.55
188.168	65.22
188.406	40.64
188.643	54.98
188.881	20.16
189.119	54.98
189.356	57.03
189.594	28.36
189.831	3.78
190.069	24.26
190.306	28.36
190.543	63.17
190.781	-28.99
191.018	93.89
191.256	44.74
191.493	44.74
191.73	-12.6
191.967	46.79
192.205	65.22
192.442	32.45
192.679	-8.51
192.916	-4.41
193.153	44.74
193.39	65.22
193.628	79.56
193.865	61.12
194.102	104.13
194.339	40.64
194.576	95.94
194.813	40.64
195.049	9.92
195.286	52.93
195.523	85.7
195.76	-22.84
195.997	36.55
196.234	73.41
196.47	118.47
196.707	81.6
196.944	36.55
197.18	-35.13
197.417	28.36
197.654	77.51
197.89	20.16
198.127	118.47
198.363	24.26
198.6	65.22
198.836	28.36
199.073	30.4
199.309	24.26
199.546	20.16
199.782	30.4
200.018	81.6
200.255	46.79
200.491	7.88
200.727	24.26
200.963	-14.65
201.199	14.02
201.436	75.46
201.672	-6.46
201.908	104.13
202.144	52.93
202.38	81.6
202.616	40.64
202.852	65.22
203.088	-33.08
203.324	22.21
203.56	20.16
203.796	138.95
204.032	-4.41
204.268	36.55
204.503	32.45
204.739	-2.36
204.975	18.12
205.211	114.37
205.446	-2.36
205.682	110.28
205.918	28.36
206.153	34.5
206.389	3.78
206.625	61.12
206.86	26.31
207.096	18.12
207.331	46.79
207.567	38.6
207.802	-12.6
208.037	65.22
208.273	26.31
208.508	77.51
208.744	11.97
208.979	-28.99
209.214	32.45
209.449	77.51
209.685	-31.03
209.92	-10.55
210.155	40.64
210.39	54.98
210.625	63.17
210.86	32.45
211.095	69.32
211.33	-20.79
211.565	110.28
211.8	73.41
212.035	69.32
212.27	38.6
212.505	7.88
212.74	14.02
212.975	-14.65
213.21	63.17
213.444	-12.6
213.679	104.13
213.914	-22.84
214.149	52.93
214.383	-37.18
214.618	40.64
214.853	11.97
215.087	36.55
215.322	-22.84
215.556	44.74
215.791	22.21
216.025	81.6
216.26	61.12
216.494	16.07
216.729	61.12
216.963	65.22
217.197	-35.13
217.432	85.7
217.666	3.78
217.9	16.07
218.135	20.16
218.369	14.02
218.603	-43.32
218.837	38.6
219.071	16.07
219.306	36.55
219.54	34.5
219.774	38.6
220.008	40.64
220.242	44.74
220.476	30.4
220.71	-4.41
220.944	3.78
221.178	28.36
221.411	36.55
221.645	52.93
221.879	71.36
222.113	22.21
222.347	36.55
222.58	71.36
222.814	30.4
223.048	85.7
223.281	16.07
223.515	14.02
223.749	-2.36
223.982	100.04
224.216	22.21
224.449	69.32
224.683	16.07
224.916	52.93
225.15	38.6
225.383	50.88
225.617	38.6
225.85	52.93
226.083	52.93
226.317	52.93
226.55	112.32
226.783	28.36
227.016	24.26
227.25	-12.6
227.483	-12.6
227.716	65.22
227.949	-4.41
228.182	65.22
228.415	-0.32
228.648	100.04
228.881	20.16
229.114	20.16
229.347	46.79
229.58	32.45
229.813	11.97
230.046	126.66
230.279	40.64
230.512	20.16
230.745	147.14
230.977	85.7
231.21	11.97
231.443	22.21
231.675	48.84
231.908	9.92
232.141	38.6
232.373	65.22
232.606	44.74
232.839	-12.6
233.071	63.17
233.304	81.6
233.536	3.78
233.769	40.64
234.001	16.07
234.233	11.97
234.466	44.74
234.698	61.12
234.93	44.74
235.163	97.99
235.395	-0.32
235.627	36.55
235.86	44.74
236.092	91.84
236.324	11.97
236.556	36.55
236.788	73.41
237.02	54.98
237.252	14.02
237.484	38.6
237.716	22.21
237.948	5.83
238.18	95.94
238.412	104.13
238.644	-10.55
238.876	-0.32
239.108	-6.46
239.34	77.51
239.571	59.08
239.803	-0.32
240.035	77.51
240.267	110.28
240.498	28.36
240.73	65.22
240.962	-18.75
241.193	40.64
241.425	102.08
241.656	93.89
241.888	65.22
242.119	-8.51
242.351	157.38
242.582	122.56
242.814	32.45
243.045	-26.94
243.277	52.93
243.508	-24.89
243.739	89.8
243.971	-16.7
244.202	134.85
244.433	54.98
244.664	79.56
244.896	44.74
245.127	52.93
245.358	81.6
245.589	52.93
245.82	69.32
246.051	63.17
246.282	102.08
246.513	38.6
246.744	52.93
246.975	40.64
247.206	75.46
247.437	79.56
247.668	-20.79
247.899	-28.99
248.129	48.84
248.36	34.5
248.591	5.83
248.822	59.08
249.052	48.84
249.283	46.79
249.514	-2.36
249.744	28.36
249.975	93.89
250.206	20.16
250.436	-4.41
250.667	57.03
250.897	1.73
251.128	52.93
251.358	81.6
251.589	61.12
251.819	59.08
252.049	-0.32
252.28	71.36
252.51	89.8
252.74	145.09
252.971	7.88
253.201	63.17
253.431	85.7
253.661	28.36
253.891	11.97
254.121	97.99
254.352	3.78
254.582	3.78
254.812	61.12
255.042	65.22
255.272	63.17
255.502	42.69
255.732	-0.32
255.962	118.47
256.192	34.5
256.421	36.55
256.651	38.6
256.881	28.36
257.111	73.41
257.341	95.94
257.57	11.97
257.8	-12.6
258.03	40.64
258.259	3.78
258.489	73.41
258.719	36.55
258.948	54.98
259.178	102.08
259.407	79.56
259.637	44.74
259.866	63.17
260.096	22.21
260.325	-4.41
260.555	40.64
260.784	77.51
261.013	11.97
261.243	32.45
261.472	63.17
261.701	61.12
261.931	93.89
262.16	79.56
262.389	110.28
262.618	52.93
262.847	89.8
263.076	57.03
263.305	93.89
263.535	-4.41
263.764	69.32
263.993	63.17
264.222	63.17
264.451	81.6
264.679	11.97
264.908	24.26
265.137	85.7
265.366	69.32
265.595	81.6
265.824	7.88
266.053	38.6
266.281	52.93
266.51	85.7
266.739	69.32
266.967	61.12
267.196	46.79
267.425	77.51
267.653	52.93
267.882	81.6
268.11	-12.6
268.339	61.12
268.567	73.41
268.796	20.16
269.024	44.74
269.253	87.75
269.481	73.41
269.709	87.75
269.938	-2.36
270.166	73.41
270.394	83.65
270.623	44.74
270.851	52.93
271.079	65.22
271.307	20.16
271.535	38.6
271.764	11.97
271.992	24.26
272.22	36.55
272.448	46.79
272.676	73.41
272.904	63.17
273.132	57.03
273.36	-6.46
273.588	-8.51
273.816	7.88
274.043	69.32
274.271	20.16
274.499	52.93
274.727	-28.99
274.955	77.51
275.182	65.22
275.41	22.21
275.638	61.12
275.866	85.7
276.093	69.32
276.321	46.79
276.548	38.6
276.776	48.84
277.003	85.7
277.231	40.64
277.458	38.6
277.686	104.13
277.913	50.88
278.141	77.51
278.368	-12.6
278.595	-0.32
278.823	50.88
279.05	63.17
279.277	40.64
279.505	-18.75
279.732	61.12
279.959	32.45
280.186	67.27
280.413	48.84
280.641	63.17
280.868	93.89
281.095	61.12
281.322	-2.36
281.549	-4.41
281.776	61.12
282.003	110.28
282.23	79.56
282.457	7.88
282.683	7.88
282.91	50.88
283.137	44.74
283.364	102.08
283.591	18.12
283.818	14.02
284.044	44.74
284.271	91.84
284.498	30.4
284.724	26.31
284.951	-20.79
285.178	95.94
285.404	36.55
285.631	77.51
285.857	63.17
286.084	93.89
286.31	93.89
286.537	118.47
286.763	24.26
286.99	46.79
287.216	-26.94
287.442	20.16
287.669	-12.6
287.895	61.12
288.121	24.26
288.347	67.27
288.574	44.74
288.8	54.98
289.026	3.78
289.252	73.41
289.478	48.84
289.704	3.78
289.931	42.69
290.157	38.6
290.383	24.26
290.609	54.98
290.835	-0.32
291.06	61.12
291.286	93.89
291.512	40.64
291.738	20.16
291.964	75.46
292.19	-12.6
292.416	65.22
292.641	9.92
292.867	16.07
293.093	54.98
293.319	97.99
293.544	91.84
293.77	28.36
293.995	-35.13
294.221	-61.75
294.447	71.36
294.672	73.41
294.898	24.26
295.123	32.45
295.349	63.17
295.574	69.32
295.799	36.55
296.025	44.74
296.25	65.22
296.476	36.55
296.701	48.84
296.926	59.08
297.151	48.84
297.377	32.45
297.602	46.79
297.827	40.64
298.052	89.8
298.277	110.28
298.502	-49.47
298.727	69.32
298.953	102.08
299.178	106.18
299.403	-22.84
299.628	61.12
299.852	20.16
300.077	38.6
300.302	18.12
300.527	44.74
300.752	79.56
300.977	20.16
301.202	18.12
301.426	69.32
301.651	79.56
301.876	69.32
302.101	73.41
302.325	118.47
302.55	122.56
302.775	42.69
302.999	-26.94
303.224	50.88
303.448	36.55
303.673	52.93
303.897	7.88
304.122	61.12
304.346	69.32
304.571	114.37
304.795	22.21
305.019	38.6
305.244	28.36
305.468	7.88
305.692	104.13
305.917	14.02
306.141	-35.13
306.365	132.8
306.589	-4.41
306.813	71.36
307.038	7.88
307.262	54.98
307.486	46.79
307.71	-6.46
307.934	11.97
308.158	126.66
308.382	102.08
308.606	52.93
308.83	32.45
309.054	-16.7
309.278	-4.41
309.502	52.93
309.725	20.16
309.949	69.32
310.173	46.79
310.397	-12.6
310.62	22.21
310.844	-4.41
311.068	52.93
311.292	-10.55
311.515	65.22
311.739	32.45
311.962	-12.6
312.186	44.74
312.41	22.21
312.633	36.55
312.857	20.16
313.08	36.55
313.303	3.78
313.527	69.32
313.75	67.27
313.974	65.22
314.197	20.16
314.42	3.78
314.644	85.7
314.867	9.92
315.09	44.74
315.313	-45.37
315.536	63.17
315.76	48.84
315.983	3.78
316.206	118.47
316.429	77.51
316.652	-26.94
316.875	44.74
317.098	20.16
317.321	28.36
317.544	11.97
317.767	87.75
317.99	28.36
318.213	44.74
318.436	61.12
318.658	22.21
318.881	65.22
319.104	-2.36
319.327	61.12
319.55	50.88
319.772	3.78
319.995	28.36
320.218	114.37
320.44	44.74
320.663	-18.75
320.885	28.36
321.108	46.79
321.331	20.16
321.553	63.17
321.776	73.41
321.998	69.32
322.22	128.71
322.443	38.6
322.665	44.74
322.888	61.12
323.11	20.16
323.332	48.84
323.555	36.55
323.777	46.79
323.999	52.93
324.221	69.32
324.443	38.6
324.666	34.5
324.888	59.08
325.11	63.17
325.332	67.27
325.554	26.31
325.776	1.73
325.998	130.75
326.22	104.13
326.442	16.07
326.664	24.26
326.886	54.98
327.108	61.12
327.33	52.93
327.551	54.98
327.773	50.88
327.995	85.7
328.217	38.6
328.439	24.26
328.66	32.45
328.882	20.16
329.104	36.55
329.325	50.88
329.547	-20.79
329.769	-0.32
329.99	100.04
330.212	44.74
330.433	69.32
330.655	87.75
330.876	65.22
331.098	3.78
331.319	122.56
331.54	52.93
331.762	77.51
331.983	69.32
332.204	69.32
332.426	28.36
332.647	91.84
332.868	75.46
333.089	26.31
333.311	93.89
333.532	5.83
333.753	-28.99
333.974	67.27
334.195	30.4
334.416	-0.32
334.637	42.69
334.858	18.12
335.079	40.64
335.3	67.27
335.521	24.26
335.742	34.5
335.963	-10.55
336.184	-0.32
336.405	71.36
336.626	24.26
336.846	40.64
337.067	59.08
337.288	-8.51
337.509	52.93
337.729	3.78
337.95	30.4
338.171	11.97
338.391	69.32
338.612	20.16
338.833	14.02
339.053	28.36
339.274	-2.36
339.494	87.75
339.715	14.02
339.935	-35.13
340.156	44.74
340.376	-4.41
340.596	61.12
340.817	30.4
341.037	52.93
341.257	3.78
341.478	38.6
341.698	22.21
341.918	44.74
342.138	38.6
342.359	114.37
342.579	81.6
342.799	36.55
343.019	14.02
343.239	36.55
343.459	50.88
343.679	67.27
343.899	73.41
344.119	5.83
344.339	24.26
344.559	112.32
344.779	18.12
344.999	20.16
345.219	28.36
345.439	57.03
345.658	122.56
345.878	-22.84
346.098	-24.89
346.318	69.32
346.537	24.26
346.757	77.51
346.977	-12.6
347.196	32.45
347.416	24.26
347.636	-10.55
347.855	85.7
348.075	73.41
348.294	59.08
348.514	11.97
348.733	85.7
348.953	71.36
349.172	3.78
349.392	52.93
349.611	69.32
349.83	-14.65
350.05	52.93
350.269	114.37
350.488	-20.79
350.707	16.07
350.927	-6.46
351.146	61.12
351.365	32.45
351.584	104.13
351.803	-2.36
352.023	11.97
352.242	97.99
352.461	38.6
352.68	32.45
352.899	30.4
353.118	65.22
353.337	32.45
353.556	40.64
353.775	11.97
353.993	-4.41
354.212	52.93
354.431	20.16
354.65	-12.6
354.869	20.16
355.088	-2.36
355.306	81.6
355.525	9.92
355.744	20.16
355.962	30.4
356.181	100.04
356.4	30.4
356.618	-26.94
356.837	42.69
357.055	48.84
357.274	85.7
357.492	57.03
357.711	-2.36
357.929	50.88
358.148	32.45
358.366	77.51
358.585	81.6
358.803	71.36
359.021	44.74
359.24	77.51
359.458	52.93
359.676	14.02
359.894	44.74
360.113	-16.7
360.331	34.5
360.549	14.02
360.767	32.45
360.985	3.78
361.203	36.55
361.421	54.98
361.639	48.84
361.857	89.8
362.075	155.33
362.293	44.74
362.511	22.21
362.729	32.45
362.947	110.28
363.165	102.08
363.383	71.36
363.601	-6.46
363.819	26.31
364.036	75.46
364.254	3.78
364.472	81.6
364.689	69.32
364.907	61.12
365.125	40.64
365.342	20.16
365.56	46.79
365.778	52.93
365.995	11.97
366.213	110.28
366.43	44.74
366.648	20.16
366.865	32.45
367.083	3.78
367.3	14.02
367.517	-37.18
367.735	24.26
367.952	26.31
368.17	3.78
368.387	14.02
368.604	120.52
368.821	20.16
369.039	91.84
369.256	-12.6
369.473	16.07
369.69	79.56
369.907	-18.75
370.124	-10.55
370.341	1.73
370.558	57.03
370.776	118.47
370.993	-2.36
371.21	93.89
371.426	69.32
371.643	14.02
371.86	61.12
372.077	61.12
372.294	36.55
372.511	22.21
372.728	20.16
372.945	48.84
373.161	22.21
373.378	3.78
373.595	59.08
373.811	75.46
374.028	-6.46
374.245	52.93
374.461	-45.37
374.678	-33.08
374.895	42.69
375.111	24.26
375.328	89.8
375.544	61.12
375.761	75.46
375.977	7.88
376.194	57.03
376.41	38.6
376.626	61.12
376.843	36.55
377.059	79.56
377.275	95.94
377.492	110.28
377.708	36.55
377.924	83.65
378.14	20.16
378.357	3.78
378.573	22.21
378.789	16.07
379.005	71.36
379.221	30.4
379.437	22.21
379.653	3.78
379.869	118.47
380.085	28.36
380.301	59.08
380.517	71.36
380.733	-47.42
380.949	108.23
381.165	-12.6
381.381	16.07
381.597	32.45
381.813	77.51
382.028	67.27
382.244	-2.36
382.46	87.75
382.676	95.94
382.891	5.83
383.107	36.55
383.323	34.5
383.538	30.4
383.754	24.26
383.969	44.74
384.185	32.45
384.4	22.21
384.616	36.55
384.831	85.7
385.047	57.03
385.262	24.26
385.478	28.36
385.693	40.64
385.909	32.45
386.124	44.74
386.339	-18.75
386.554	46.79
386.77	59.08
386.985	79.56
387.2	63.17
387.415	97.99
387.631	36.55
387.846	28.36
388.061	57.03
388.276	-20.79
388.491	52.93
388.706	16.07
388.921	79.56
389.136	5.83
389.351	108.23
389.566	89.8
389.781	36.55
389.996	40.64
390.211	112.32
390.426	-84.28
390.641	22.21
390.855	26.31
391.07	75.46
391.285	42.69
391.5	85.7
391.714	48.84
391.929	24.26
392.144	110.28
392.358	20.16
392.573	22.21
392.788	73.41
393.002	20.16
393.217	89.8
393.431	-18.75
393.646	134.85
393.86	40.64
394.075	69.32
394.289	38.6
394.504	81.6
394.718	54.98
394.933	97.99
395.147	40.64
395.361	32.45
395.576	81.6
395.79	36.55
396.004	48.84
396.218	77.51
396.432	77.51
396.647	-26.94
396.861	18.12
397.075	-10.55
397.289	-12.6
397.503	18.12
397.717	-0.32
397.931	61.12
398.145	57.03
398.359	-8.51
398.573	7.88
398.787	65.22
399.001	85.7
399.215	9.92
399.429	63.17
399.643	34.5
399.857	69.32
400.07	87.75
400.284	46.79
400.498	50.88
400.712	32.45
400.925	59.08
401.139	20.16
401.353	-2.36
401.566	46.79
401.78	89.8
401.994	44.74
402.207	44.74
402.421	1.73
402.634	110.28
402.848	87.75
403.061	102.08
403.275	14.02
403.488	54.98
403.702	-71.99
403.915	69.32
404.128	75.46
404.342	79.56
404.555	34.5
404.768	52.93
404.982	-6.46
405.195	28.36
405.408	36.55
405.621	7.88
405.835	44.74
406.048	57.03
406.261	11.97
406.474	59.08
406.687	1.73
406.9	36.55
407.113	1.73
407.326	11.97
407.539	48.84
407.752	63.17
407.965	11.97
408.178	63.17
408.391	52.93
408.604	54.98
408.817	5.83
409.029	3.78
409.242	81.6
409.455	69.32
409.668	85.7
409.881	75.46
410.093	-28.99
410.306	61.12
410.519	22.21
410.731	-16.7
410.944	36.55
411.157	81.6
411.369	20.16
411.582	30.4
411.794	20.16
412.007	95.94
412.219	5.83
412.432	-10.55
412.644	-41.27
412.857	-4.41
413.069	61.12
413.281	50.88
413.494	16.07
413.706	-12.6
413.918	22.21
414.131	40.64
414.343	67.27
414.555	30.4
414.767	5.83
414.979	46.79
415.192	52.93
415.404	-12.6
415.616	1.73
415.828	28.36
416.04	61.12
416.252	-24.89
416.464	11.97
416.676	126.66
416.888	32.45
417.1	110.28
417.312	-45.37
417.524	89.8
417.736	30.4
417.948	48.84
418.159	38.6
418.371	-45.37
418.583	38.6
418.795	-37.18
419.007	52.93
419.218	57.03
419.43	28.36
419.642	30.4
419.853	5.83
420.065	110.28
420.276	-65.85
420.488	5.83
420.7	18.12
420.911	9.92
421.123	36.55
421.334	20.16
421.546	44.74
421.757	24.26
421.969	-41.27
422.18	-67.9
422.391	57.03
422.603	14.02
422.814	38.6
423.025	28.36
423.237	57.03
423.448	40.64
423.659	44.74
423.87	3.78
424.082	-8.51
424.293	42.69
424.504	110.28
424.715	44.74
424.926	30.4
425.137	57.03
425.348	3.78
425.559	52.93
425.77	106.18
425.981	-61.75
426.192	52.93
426.403	16.07
426.614	-2.36
426.825	11.97
427.036	-28.99
427.247	44.74
427.458	138.95
427.668	-8.51
427.879	93.89
428.09	32.45
428.301	7.88
428.511	93.89
428.722	73.41
428.933	89.8
429.143	-0.32
429.354	24.26
429.565	44.74
429.775	61.12
429.986	3.78
430.196	63.17
430.407	61.12
430.617	118.47
430.828	-0.32
431.038	54.98
431.249	-8.51
431.459	75.46
431.669	79.56
431.88	81.6
432.09	54.98
432.3	9.92
432.511	97.99
432.721	-14.65
432.931	46.79
433.141	95.94
433.351	24.26
433.562	24.26
433.772	32.45
433.982	61.12
434.192	24.26
434.402	44.74
434.612	83.65
434.822	40.64
435.032	3.78
435.242	36.55
435.452	30.4
435.662	52.93
435.872	-4.41
436.082	75.46
436.292	57.03
436.502	65.22
436.711	63.17
436.921	16.07
437.131	44.74
437.341	7.88
437.551	40.64
437.76	3.78
437.97	-4.41
438.18	32.45
438.389	14.02
438.599	87.75
438.808	128.71
439.018	46.79
439.228	32.45
439.437	28.36
439.647	79.56
439.856	57.03
440.066	20.16
440.275	110.28
440.484	20.16
440.694	93.89
440.903	5.83
441.113	-2.36
441.322	93.89
441.531	28.36
441.741	36.55
441.95	44.74
442.159	36.55
442.368	73.41
442.577	22.21
442.787	36.55
442.996	110.28
443.205	36.55
443.414	38.6
443.623	44.74
443.832	24.26
444.041	38.6
444.25	48.84
444.459	11.97
444.668	106.18
444.877	52.93
445.086	57.03
445.295	73.41
445.504	-0.32
445.713	36.55
445.922	54.98
446.13	28.36
446.339	67.27
446.548	48.84
446.757	-31.03
446.965	71.36
447.174	89.8
447.383	77.51
447.591	48.84
447.8	3.78
448.009	3.78
448.217	28.36
448.426	16.07
448.634	61.12
448.843	52.93
449.051	22.21
449.26	54.98
449.468	-16.7
449.677	108.23
449.885	20.16
450.093	32.45
450.302	97.99
450.51	77.51
450.719	71.36
450.927	3.78
451.135	89.8
451.343	-28.99
451.552	118.47
451.76	-35.13
451.968	24.26
452.176	83.65
452.384	-45.37
452.592	24.26
452.8	102.08
453.009	54.98
453.217	20.16
453.425	57.03
453.633	59.08
453.841	128.71
454.049	32.45
454.257	89.8
454.464	100.04
454.672	-18.75
454.88	-28.99
455.088	28.36
455.296	36.55
455.504	-45.37
455.711	18.12
455.919	-43.32
456.127	18.12
456.335	18.12
456.542	40.64
456.75	54.98
456.958	79.56
457.165	61.12
457.373	69.32
457.581	69.32
457.788	102.08
457.996	20.16
458.203	81.6
458.411	65.22
458.618	54.98
458.826	-18.75
459.033	77.51
459.24	61.12
459.448	145.09
459.655	110.28
459.863	69.32
460.07	-37.18
460.277	44.74
460.484	54.98
460.692	-45.37
460.899	44.74
461.106	-0.32
461.313	38.6
461.52	89.8
461.728	9.92
461.935	-16.7
462.142	57.03
462.349	77.51
462.556	5.83
462.763	22.21
462.97	11.97
463.177	5.83
463.384	57.03
463.591	77.51
463.798	11.97
464.005	89.8
464.212	57.03
464.418	52.93
464.625	93.89
464.832	71.36
465.039	20.16
465.246	42.69
465.452	11.97
465.659	73.41
465.866	50.88
466.072	-20.79
466.279	30.4
466.486	48.84
466.692	77.51
466.899	32.45
467.105	73.41
467.312	81.6
467.519	28.36
467.725	71.36
467.931	-12.6
468.138	-0.32
468.344	57.03
468.551	11.97
468.757	16.07
468.964	14.02
469.17	40.64
469.376	106.18
469.583	65.22
469.789	44.74
469.995	83.65
470.201	44.74
470.408	85.7
470.614	79.56
470.82	61.12
471.026	120.52
471.232	-12.6
471.438	-24.89
471.644	89.8
471.85	5.83
472.056	71.36
472.262	83.65
472.468	-31.03
472.674	3.78
472.88	36.55
473.086	73.41
473.292	57.03
473.498	40.64
473.704	24.26
473.91	63.17
474.116	40.64
474.321	36.55
474.527	-4.41
474.733	65.22
474.939	16.07
475.144	-49.47
475.35	38.6
475.556	85.7
475.761	-12.6
475.967	106.18
476.173	44.74
476.378	11.97
476.584	63.17
476.789	136.9
476.995	61.12
477.2	79.56
477.406	11.97
477.611	-12.6
477.817	14.02
478.022	59.08
478.227	-2.36
478.433	36.55
478.638	83.65
478.843	11.97
479.049	3.78
479.254	116.42
479.459	32.45
479.664	3.78
479.87	71.36
480.075	52.93
480.28	42.69
480.485	75.46
480.69	44.74
480.895	44.74
481.1	81.6
481.306	22.21
481.511	36.55
481.716	16.07
481.921	-2.36
482.126	18.12
482.33	5.83
482.535	100.04
482.74	-2.36
482.945	136.9
483.15	-26.94
483.355	28.36
483.56	16.07
483.765	32.45
483.969	130.75
484.174	110.28
484.379	54.98
484.583	54.98
484.788	20.16
484.993	52.93
485.197	-39.23
485.402	-8.51
485.607	28.36
485.811	28.36
486.016	44.74
486.22	93.89
486.425	104.13
486.629	40.64
486.834	69.32
487.038	-22.84
487.243	100.04
487.447	77.51
487.652	40.64
487.856	40.64
488.06	11.97
488.265	102.08
488.469	32.45
488.673	106.18
488.877	24.26
489.082	-65.85
489.286	-2.36
489.49	73.41
489.694	48.84
489.898	44.74
490.102	61.12
490.307	85.7
490.511	87.75
490.715	52.93
490.919	106.18
491.123	30.4
491.327	52.93
491.531	73.41
491.735	138.95
491.939	46.79
492.143	102.08
492.346	67.27
492.55	-8.51
492.754	-2.36
492.958	5.83
493.162	44.74
493.366	44.74
493.569	22.21
493.773	63.17
493.977	5.83
494.18	85.7
494.384	61.12
494.588	122.56
494.791	57.03
494.995	61.12
495.199	54.98
495.402	11.97
495.606	20.16
495.809	61.12
496.013	-24.89
496.216	102.08
496.42	97.99
496.623	38.6
496.827	65.22
497.03	14.02
497.233	110.28
497.437	3.78
497.64	120.52
497.843	44.74
498.047	24.26
498.25	-26.94
498.453	52.93
498.656	-28.99
498.86	-2.36
499.063	20.16
499.266	61.12
499.469	79.56
499.672	7.88
499.875	22.21
500.078	134.85
500.281	116.42
500.484	102.08
500.687	26.31
500.89	87.75
501.093	9.92
501.296	28.36
501.499	48.84
501.702	20.16
501.905	-12.6
502.108	-4.41
502.311	87.75
502.514	16.07
502.716	48.84
502.919	5.83
503.122	87.75
503.325	-4.41
503.527	106.18
503.73	38.6
503.933	20.16
504.135	52.93
504.338	-10.55
504.541	46.79
504.743	61.12
504.946	-12.6
505.148	112.32
505.351	63.17
505.553	151.23
505.756	104.13
505.958	57.03
506.161	24.26
506.363	-37.18
506.565	32.45
506.768	73.41
506.97	54.98
507.172	59.08
507.375	46.79
507.577	-0.32
507.779	-10.55
507.982	32.45
508.184	71.36
508.386	-26.94
508.588	24.26
508.79	52.93
508.993	36.55
509.195	14.02
509.397	50.88
509.599	32.45
509.801	22.21
510.003	-8.51
510.205	20.16
510.407	34.5
510.609	22.21
510.811	89.8
511.013	63.17
511.215	32.45
511.417	81.6
511.618	75.46
511.82	50.88
512.022	14.02
512.224	81.6
512.426	159.43
512.627	61.12
512.829	65.22
513.031	63.17
513.233	61.12
513.434	-43.32
513.636	-41.27
513.838	50.88
514.039	24.26
514.241	20.16
514.442	20.16
514.644	20.16
514.845	28.36
515.047	26.31
515.248	104.13
515.45	28.36
515.651	11.97
515.853	42.69
516.054	1.73
516.256	32.45
516.457	20.16
516.658	-0.32
516.86	112.32
517.061	69.32
517.262	16.07
517.463	-20.79
517.665	77.51
517.866	81.6
518.067	40.64
518.268	44.74
518.469	-18.75
518.67	20.16
518.872	32.45
519.073	16.07
519.274	42.69
519.475	5.83
519.676	73.41
519.877	36.55
520.078	24.26
520.279	20.16
520.48	57.03
520.681	16.07
520.881	110.28
521.082	38.6
521.283	79.56
521.484	22.21
521.685	83.65
521.886	102.08
522.086	28.36
522.287	30.4
522.488	36.55
522.689	28.36
522.889	7.88
523.09	52.93
523.291	36.55
523.491	57.03
523.692	-35.13
523.892	36.55
524.093	73.41
524.294	77.51
524.494	59.08
524.695	-4.41
524.895	57.03
525.096	36.55
525.296	67.27
525.496	54.98
525.697	63.17
525.897	7.88
526.098	9.92
526.298	85.7
526.498	5.83
526.699	93.89
526.899	30.4
527.099	44.74
527.299	16.07
527.499	85.7
527.7	18.12
527.9	52.93
528.1	-14.65
528.3	44.74
528.5	54.98
528.7	93.89
528.9	104.13
529.1	38.6
529.3	44.74
529.5	16.07
529.7	36.55
529.9	81.6
530.1	95.94
530.3	14.02
530.5	54.98
530.7	44.74
530.9	65.22
531.1	-16.7
531.3	97.99
531.499	-0.32
531.699	-4.41
531.899	52.93
532.099	-8.51
532.298	16.07
532.498	52.93
532.698	36.55
532.897	34.5
533.097	-10.55
533.297	28.36
533.496	-0.32
533.696	46.79
533.895	69.32
534.095	36.55
534.294	61.12
534.494	161.47
534.693	65.22
534.893	-12.6
535.092	61.12
535.292	16.07
535.491	5.83
535.69	-24.89
535.89	-12.6
536.089	77.51
536.288	22.21
536.488	-2.36
536.687	63.17
536.886	93.89
537.085	38.6
537.285	77.51
537.484	93.89
537.683	110.28
537.882	36.55
538.081	7.88
538.28	44.74
538.479	24.26
538.678	5.83
538.877	20.16
539.076	20.16
539.275	54.98
539.474	28.36
539.673	16.07
539.872	-16.7
540.071	73.41
540.27	52.93
540.469	85.7
540.668	34.5
540.867	14.02
541.065	14.02
541.264	79.56
541.463	44.74
541.662	46.79
541.861	120.52
542.059	-39.23
542.258	106.18
542.457	46.79
542.655	48.84
542.854	-12.6
543.052	20.16
543.251	61.12
543.45	38.6
543.648	28.36
543.847	71.36
544.045	16.07
544.244	100.04
544.442	-8.51
544.641	28.36
544.839	26.31
545.037	20.16
545.236	85.7
545.434	30.4
545.632	-0.32
545.831	54.98
546.029	71.36
546.227	75.46
546.426	11.97
546.624	42.69
546.822	114.37
547.02	112.32
547.218	-10.55
547.417	18.12
547.615	95.94
547.813	40.64
548.011	69.32
548.209	59.08
548.407	52.93
548.605	59.08
548.803	16.07
549.001	110.28
549.199	61.12
549.397	110.28
549.595	40.64
549.793	44.74
549.991	22.21
550.189	32.45
550.387	32.45
550.584	85.7
550.782	11.97
550.98	16.07
551.178	7.88
551.376	52.93
551.573	40.64
551.771	-2.36
551.969	100.04
552.166	38.6
552.364	42.69
552.562	36.55
552.759	3.78
552.957	69.32
553.154	3.78
553.352	30.4
553.55	30.4
553.747	30.4
553.945	77.51
554.142	20.16
554.339	54.98
554.537	118.47
554.734	93.89
554.932	71.36
555.129	102.08
555.326	52.93
555.524	48.84
555.721	3.78
555.918	50.88
556.116	93.89
556.313	77.51
556.51	-10.55
556.707	112.32
556.904	48.84
557.102	-12.6
557.299	28.36
557.496	-37.18
557.693	57.03
557.89	-20.79
558.087	28.36
558.284	89.8
558.481	-4.41
558.678	54.98
558.875	46.79
559.072	95.94
559.269	69.32
559.466	83.65
559.663	9.92
559.86	57.03
560.057	69.32
560.254	38.6
560.45	69.32
560.647	30.4
560.844	89.8
561.041	42.69
561.237	46.79
561.434	114.37
561.631	-0.32
561.828	40.64
562.024	5.83
562.221	16.07
562.418	3.78
562.614	69.32
562.811	85.7
563.007	52.93
563.204	42.69
563.4	11.97
563.597	46.79
563.793	38.6
563.99	3.78
564.186	22.21
564.383	77.51
564.579	-10.55
564.775	59.08
564.972	-12.6
565.168	28.36
565.365	69.32
565.561	32.45
565.757	65.22
565.953	28.36
566.15	7.88
566.346	14.02
566.542	61.12
566.738	-2.36
566.934	36.55
567.131	24.26
567.327	63.17
567.523	1.73
567.719	48.84
567.915	5.83
568.111	81.6
568.307	59.08
568.503	44.74
568.699	54.98
568.895	52.93
569.091	-26.94
569.287	30.4
569.483	16.07
569.679	54.98
569.875	-4.41
570.07	48.84
570.266	69.32
570.462	48.84
570.658	36.55
570.854	22.21
571.049	102.08
571.245	24.26
571.441	110.28
571.636	36.55
571.832	-37.18
572.028	69.32
572.223	44.74
572.419	54.98
572.615	95.94
572.81	61.12
573.006	16.07
573.201	26.31
573.397	52.93
573.592	-53.56
573.788	3.78
573.983	5.83
574.179	83.65
574.374	11.97
574.569	81.6
574.765	24.26
574.96	16.07
575.156	14.02
575.351	46.79
575.546	-45.37
575.741	69.32
575.937	38.6
576.132	57.03
576.327	91.84
576.522	24.26
576.718	7.88
576.913	73.41
577.108	-6.46
577.303	44.74
577.498	63.17
577.693	20.16
577.888	100.04
578.083	28.36
578.278	85.7
578.473	38.6
578.668	61.12
578.863	57.03
579.058	28.36
579.253	69.32
579.448	79.56
579.643	14.02
579.838	5.83
580.033	24.26
580.227	16.07
580.422	9.92
580.617	-4.41
580.812	36.55
581.006	30.4
581.201	32.45
581.396	48.84
581.591	81.6
581.785	40.64
581.98	71.36
582.175	102.08
582.369	-41.27
582.564	9.92
582.758	-10.55
582.953	79.56
583.147	34.5
583.342	102.08
583.536	46.79
583.731	28.36
583.925	89.8
584.12	7.88
584.314	-4.41
584.509	52.93
584.703	108.23
584.897	52.93
585.092	18.12
585.286	81.6
585.48	18.12
585.674	52.93
585.869	73.41
586.063	-4.41
586.257	-24.89
586.451	69.32
586.646	-10.55
586.84	89.8
587.034	54.98
587.228	-10.55
587.422	65.22
587.616	104.13
587.81	5.83
588.004	-0.32
588.198	20.16
588.392	54.98
588.586	-0.32
588.78	61.12
588.974	-33.08
589.168	36.55
589.362	73.41
589.556	77.51
589.75	77.51
589.944	118.47
590.137	77.51
590.331	28.36
590.525	95.94
590.719	59.08
590.913	40.64
591.106	24.26
591.3	11.97
591.494	-20.79
591.687	26.31
591.881	61.12
592.075	104.13
592.268	28.36
592.462	61.12
592.655	14.02
592.849	11.97
593.043	77.51
593.236	3.78
593.43	104.13
593.623	20.16
593.817	-24.89
594.01	89.8
594.203	46.79
594.397	104.13
594.59	69.32
594.784	65.22
594.977	7.88
595.17	93.89
595.364	9.92
595.557	30.4
595.75	11.97
595.943	46.79
596.137	81.6
596.33	63.17
596.523	67.27
596.716	81.6
596.909	-31.03
597.102	11.97
597.296	61.12
597.489	-31.03
597.682	28.36
597.875	16.07
598.068	54.98
598.261	7.88
598.454	63.17
598.647	42.69
598.84	11.97
599.033	44.74
599.226	36.55
599.419	38.6
599.611	85.7
599.804	28.36
599.997	-4.41
600.19	63.17
600.383	-28.99
600.576	-2.36
600.768	30.4
600.961	16.07
601.154	102.08
601.347	-24.89
601.539	44.74
601.732	112.32
601.925	59.08
602.117	32.45
602.31	69.32
602.502	48.84
602.695	28.36
602.888	14.02
603.08	52.93
603.273	85.7
603.465	81.6
603.658	7.88
603.85	36.55
604.043	65.22
604.235	-51.51
604.427	73.41
604.62	87.75
604.812	-28.99
605.004	97.99
605.197	52.93
605.389	38.6
605.581	16.07
605.774	79.56
605.966	52.93
606.158	32.45
606.35	48.84
606.543	3.78
606.735	36.55
606.927	3.78
607.119	106.18
607.311	-94.52
607.503	18.12
607.695	38.6
607.887	112.32
608.079	59.08
608.271	5.83
608.463	57.03
608.655	16.07
608.847	69.32
609.039	28.36
609.231	91.84
609.423	110.28
609.615	24.26
609.807	16.07
609.999	63.17
610.191	32.45
610.382	-35.13
610.574	20.16
610.766	59.08
610.958	16.07
611.15	57.03
611.341	30.4
611.533	52.93
611.725	71.36
611.916	110.28
612.108	38.6
612.3	-28.99
612.491	28.36
612.683	46.79
612.874	54.98
613.066	48.84
613.257	-10.55
613.449	28.36
613.64	57.03
613.832	124.61
614.023	69.32
614.215	116.42
614.406	95.94
614.598	7.88
614.789	61.12
614.98	97.99
615.172	54.98
615.363	48.84
615.554	5.83
615.746	20.16
615.937	54.98
616.128	128.71
616.319	77.51
616.511	-18.75
616.702	79.56
616.893	61.12
617.084	36.55
617.275	63.17
617.466	89.8
617.658	20.16
617.849	93.89
618.04	-2.36
618.231	-14.65
618.422	69.32
618.613	7.88
618.804	85.7
618.995	116.42
619.186	-31.03
619.377	32.45
619.568	20.16
619.758	32.45
619.949	-12.6
620.14	52.93
620.331	83.65
620.522	48.84
620.713	69.32
620.903	11.97
621.094	46.79
621.285	3.78
621.476	61.12
621.666	108.23
621.857	-4.41
622.048	34.5
622.238	-4.41
622.429	71.36
622.62	-6.46
622.81	73.41
623.001	87.75
623.191	77.51
623.382	24.26
623.572	110.28
623.763	-20.79
623.953	46.79
624.144	85.7
624.334	69.32
624.525	85.7
624.715	85.7
624.905	61.12
625.096	-37.18
625.286	46.79
625.477	20.16
625.667	-18.75
625.857	63.17
626.047	118.47
626.238	54.98
626.428	110.28
626.618	87.75
626.808	48.84
626.999	73.41
627.189	-49.47
627.379	-4.41
627.569	11.97
627.759	-65.85
627.949	-24.89
628.139	30.4
628.329	20.16
628.519	32.45
628.709	30.4
628.899	65.22
629.089	61.12
629.279	20.16
629.469	3.78
629.659	112.32
629.849	63.17
630.039	-26.94
630.229	46.79
630.419	22.21
630.609	22.21
630.798	61.12
630.988	69.32
631.178	77.51
631.368	108.23
631.557	52.93
631.747	46.79
631.937	-10.55
632.127	73.41
632.316	126.66
632.506	89.8
632.696	-8.51
632.885	11.97
633.075	81.6
633.264	5.83
633.454	54.98
633.643	-28.99
633.833	36.55
634.022	38.6
634.212	-8.51
634.401	52.93
634.591	97.99
634.78	44.74
634.97	102.08
635.159	-12.6
635.348	-8.51
635.538	22.21
635.727	14.02
635.916	-2.36
636.106	5.83
636.295	65.22
636.484	57.03
636.674	89.8
636.863	38.6
637.052	26.31
637.241	114.37
637.43	14.02
637.619	46.79
637.809	-4.41
637.998	57.03
638.187	40.64
638.376	69.32
638.565	81.6
638.754	73.41
638.943	22.21
639.132	61.12
639.321	-16.7
639.51	11.97
639.699	32.45
639.888	61.12
640.077	5.83
640.266	61.12
640.455	46.79
640.643	30.4
640.832	36.55
641.021	46.79
641.21	44.74
641.399	16.07
641.587	36.55
641.776	-31.03
641.965	-43.32
642.154	22.21
642.342	110.28
642.531	46.79
642.72	-61.75
642.908	44.74
643.097	110.28
643.286	81.6
643.474	93.89
643.663	69.32
643.851	93.89
644.04	48.84
644.228	106.18
644.417	14.02
644.605	85.7
644.794	16.07
644.982	106.18
645.171	93.89
645.359	114.37
645.547	57.03
645.736	110.28
645.924	38.6
646.112	28.36
646.301	52.93
646.489	22.21
646.677	52.93
646.866	3.78
647.054	24.26
647.242	95.94
647.43	79.56
647.618	-37.18
647.807	5.83
647.995	65.22
648.183	3.78
648.371	61.12
648.559	61.12
648.747	110.28
648.935	-45.37
649.123	77.51
649.311	20.16
649.499	57.03
649.687	38.6
649.875	52.93
650.063	50.88
650.251	122.56
650.439	40.64
650.627	7.88
650.815	122.56
651.003	91.84
651.191	69.32
651.378	7.88
651.566	36.55
651.754	54.98
651.942	36.55
652.13	-10.55
652.317	52.93
652.505	114.37
652.693	28.36
652.88	102.08
653.068	97.99
653.256	46.79
653.443	5.83
653.631	61.12
653.819	114.37
654.006	61.12
654.194	28.36
654.381	52.93
654.569	122.56
654.756	52.93
654.944	48.84
655.131	24.26
655.319	93.89
655.506	11.97
655.693	36.55
655.881	-4.41
656.068	-10.55
656.256	26.31
656.443	7.88
656.63	7.88
656.818	110.28
657.005	28.36
657.192	81.6
657.379	-20.79
657.567	114.37
657.754	22.21
657.941	46.79
658.128	52.93
658.315	28.36
658.502	36.55
658.69	65.22
658.877	-12.6
659.064	-24.89
659.251	50.88
659.438	54.98
659.625	46.79
659.812	114.37
659.999	46.79
660.186	77.51
660.373	28.36
660.56	-69.95
660.747	1.73
660.934	-4.41
661.121	32.45
661.308	-14.65
661.494	5.83
661.681	1.73
661.868	81.6
662.055	24.26
662.242	-8.51
662.428	-33.08
662.615	136.9
662.802	44.74
662.989	57.03
663.175	16.07
663.362	44.74
663.549	57.03
663.735	36.55
663.922	52.93
664.109	5.83
664.295	93.89
664.482	48.84
664.668	36.55
664.855	28.36
665.041	40.64
665.228	102.08
665.414	3.78
665.601	28.36
665.787	77.51
665.974	110.28
666.16	73.41
666.347	30.4
666.533	114.37
666.719	36.55
666.906	61.12
667.092	36.55
667.278	61.12
667.465	-2.36
667.651	36.55
667.837	22.21
668.023	28.36
668.21	5.83
668.396	9.92
668.582	-45.37
668.768	24.26
668.954	18.12
669.14	87.75
669.327	16.07
669.513	-49.47
669.699	61.12
669.885	59.08
670.071	22.21
670.257	-33.08
670.443	32.45
670.629	7.88
670.815	71.36
671.001	-0.32
671.187	61.12
671.373	102.08
671.559	52.93
671.744	63.17
671.93	28.36
672.116	22.21
672.302	57.03
672.488	20.16
672.674	3.78
672.859	87.75
673.045	50.88
673.231	83.65
673.417	-16.7
673.602	-2.36
673.788	48.84
673.974	28.36
674.159	24.26
674.345	77.51
674.531	44.74
674.716	57.03
674.902	89.8
675.087	40.64
675.273	108.23
675.459	52.93
675.644	40.64
675.83	71.36
676.015	106.18
676.2	-33.08
676.386	36.55
676.571	57.03
676.757	40.64
676.942	32.45
677.128	57.03
677.313	61.12
677.498	24.26
677.684	65.22
677.869	22.21
678.054	11.97
678.24	73.41
678.425	89.8
678.61	22.21
678.795	20.16
678.98	22.21
679.166	95.94
679.351	89.8
679.536	22.21
679.721	24.26
679.906	-8.51
680.091	63.17
680.276	73.41
680.461	65.22
680.647	34.5
680.832	3.78
681.017	100.04
681.202	50.88
681.387	28.36
681.572	44.74
681.756	48.84
681.941	7.88
682.126	69.32
682.311	126.66
682.496	-8.51
682.681	44.74
682.866	112.32
683.051	20.16
683.235	102.08
683.42	69.32
683.605	22.21
683.79	57.03
683.974	-10.55
684.159	16.07
684.344	77.51
684.529	22.21
684.713	20.16
684.898	57.03
685.083	87.75
685.267	30.4
685.452	-4.41
685.636	7.88
685.821	54.98
686.005	95.94
686.19	7.88
686.375	71.36
686.559	122.56
686.744	11.97
686.928	-18.75
687.112	36.55
687.297	38.6
687.481	-8.51
687.666	3.78
687.85	57.03
688.034	61.12
688.219	77.51
688.403	-51.51
688.587	36.55
688.772	36.55
688.956	48.84
689.14	102.08
689.324	63.17
689.509	22.21
689.693	93.89
689.877	44.74
690.061	79.56
690.245	102.08
690.43	52.93
690.614	42.69
690.798	85.7
690.982	73.41
691.166	-12.6
691.35	5.83
691.534	46.79
691.718	-28.99
691.902	-53.56
692.086	30.4
692.27	93.89
692.454	32.45
692.638	-2.36
692.822	44.74
693.006	22.21
693.19	79.56
693.373	34.5
693.557	87.75
693.741	-12.6
693.925	136.9
694.109	97.99
694.293	34.5
694.476	95.94
694.66	11.97
694.844	48.84
695.027	48.84
695.211	118.47
695.395	73.41
695.578	46.79
695.762	46.79
695.946	30.4
696.129	42.69
696.313	36.55
696.497	65.22
696.68	-16.7
696.864	11.97
697.047	-12.6
697.231	3.78
697.414	83.65
697.598	48.84
697.781	73.41
697.965	87.75
698.148	95.94
698.331	16.07
698.515	61.12
698.698	42.69
698.881	28.36
699.065	93.89
699.248	91.84
699.431	81.6
699.615	-16.7
699.798	40.64
699.981	22.21
700.165	63.17
700.348	28.36
700.531	71.36
700.714	63.17
700.897	44.74
701.08	114.37
701.264	44.74
701.447	-12.6
701.63	20.16
701.813	1.73
701.996	9.92
702.179	46.79
702.362	20.16
702.545	44.74
702.728	30.4
702.911	75.46
703.094	36.55
703.277	28.36
703.46	20.16
703.643	85.7
703.826	-8.51
704.009	54.98
704.191	93.89
704.374	73.41
704.557	11.97
704.74	77.51
704.923	44.74
705.106	69.32
705.288	89.8
705.471	5.83
705.654	93.89
705.837	-4.41
706.019	52.93
706.202	91.84
706.385	36.55
706.567	-24.89
706.75	81.6
706.932	106.18
707.115	28.36
707.298	16.07
707.48	48.84
707.663	30.4
707.845	65.22
708.028	61.12
708.21	36.55
708.393	69.32
708.575	46.79
708.758	3.78
708.94	159.43
709.123	54.98
709.305	34.5
709.487	11.97
709.67	-12.6
709.852	85.7
710.034	48.84
710.217	-39.23
710.399	54.98
710.581	24.26
710.764	-0.32
710.946	20.16
711.128	14.02
711.31	7.88
711.492	-8.51
711.675	-4.41
711.857	36.55
712.039	9.92
712.221	-2.36
712.403	-22.84
712.585	57.03
712.767	5.83
712.949	22.21
713.131	81.6
713.314	71.36
713.496	32.45
713.678	79.56
713.86	28.36
714.041	24.26
714.223	61.12
714.405	46.79
714.587	32.45
714.769	3.78
714.951	-28.99
715.133	34.5
715.315	18.12
715.497	52.93
715.678	59.08
715.86	-4.41
716.042	50.88
716.224	81.6
716.406	81.6
716.587	77.51
716.769	28.36
716.951	54.98
717.132	-35.13
717.314	87.75
717.496	16.07
717.677	85.7
717.859	65.22
718.041	32.45
718.222	61.12
718.404	26.31
718.585	65.22
718.767	63.17
718.948	67.27
719.13	11.97
719.311	5.83
719.493	61.12
719.674	42.69
719.856	26.31
720.037	40.64
720.219	118.47
720.4	52.93
720.581	-10.55
720.763	46.79
720.944	44.74
721.125	89.8
721.307	7.88
721.488	20.16
721.669	-4.41
721.85	52.93
722.032	52.93
722.213	57.03
722.394	48.84
722.575	85.7
722.756	22.21
722.938	-24.89
723.119	79.56
723.3	46.79
723.481	28.36
723.662	36.55
723.843	54.98
724.024	46.79
724.205	118.47
724.386	52.93
724.567	87.75
724.748	-65.85
724.929	54.98
725.11	81.6
725.291	54.98
725.472	52.93
725.653	52.93
725.834	67.27
726.015	63.17
726.196	14.02
726.377	71.36
726.557	46.79
726.738	87.75
726.919	54.98
727.1	67.27
727.281	48.84
727.461	63.17
727.642	-65.85
727.823	102.08
728.004	73.41
728.184	77.51
728.365	73.41
728.546	87.75
728.726	-8.51
728.907	85.7
729.087	63.17
729.268	38.6
729.449	14.02
729.629	-2.36
729.81	28.36
729.99	30.4
730.171	-8.51
730.351	28.36
730.532	46.79
730.712	36.55
730.893	75.46
731.073	36.55
731.253	57.03
731.434	20.16
731.614	52.93
731.795	52.93
731.975	61.12
732.155	65.22
732.336	20.16
732.516	11.97
732.696	46.79
732.876	-20.79
733.057	-10.55
733.237	32.45
733.417	26.31
733.597	3.78
733.778	73.41
733.958	11.97
734.138	36.55
734.318	16.07
734.498	85.7
734.678	122.56
734.858	-61.75
735.038	83.65
735.218	95.94
735.398	136.9
735.579	40.64
735.759	36.55
735.939	61.12
736.119	20.16
736.298	46.79
736.478	40.64
736.658	30.4
736.838	34.5
737.018	54.98
737.198	-31.03
737.378	36.55
737.558	85.7
737.738	40.64
737.917	26.31
738.097	61.12
738.277	42.69
738.457	-12.6
738.637	69.32
738.816	22.21
738.996	44.74
739.176	32.45
739.355	46.79
739.535	-12.6
739.715	-43.32
739.894	-12.6
740.074	-28.99
740.254	28.36
740.433	67.27
740.613	114.37
740.792	38.6
740.972	28.36
741.151	20.16
741.331	69.32
741.51	32.45
741.69	-10.55
741.869	61.12
742.049	63.17
742.228	106.18
742.408	44.74
742.587	-0.32
742.766	24.26
742.946	36.55
743.125	20.16
743.305	14.02
743.484	48.84
743.663	28.36
743.842	-4.41
744.022	69.32
744.201	69.32
744.38	16.07
744.56	46.79
744.739	52.93
744.918	11.97
745.097	-4.41
745.276	22.21
745.455	34.5
745.635	30.4
745.814	61.12
745.993	69.32
746.172	89.8
746.351	36.55
746.53	1.73
746.709	34.5
746.888	30.4
747.067	52.93
747.246	91.84
747.425	85.7
747.604	73.41
747.783	1.73
747.962	-4.41
748.141	14.02
748.32	63.17
748.499	24.26
748.677	7.88
748.856	22.21
749.035	71.36
749.214	7.88
749.393	46.79
749.572	32.45
749.75	114.37
749.929	9.92
750.108	77.51
750.287	77.51
750.465	61.12
750.644	59.08
750.823	85.7
751.001	24.26
751.18	85.7
751.359	40.64
751.537	81.6
751.716	18.12
751.894	89.8
752.073	38.6
752.251	52.93
752.43	93.89
752.609	122.56
752.787	130.75
752.966	34.5
753.144	-12.6
753.322	40.64
753.501	28.36
753.679	69.32
753.858	63.17
754.036	48.84
754.215	48.84
754.393	11.97
754.571	79.56
754.75	34.5
754.928	46.79
755.106	63.17
755.284	-2.36
755.463	77.51
755.641	5.83
755.819	30.4
755.997	-16.7
756.176	3.78
756.354	24.26
756.532	3.78
756.71	-31.03
756.888	-37.18
757.066	65.22
757.245	85.7
757.423	32.45
757.601	-8.51
757.779	34.5
757.957	65.22
758.135	73.41
758.313	28.36
758.491	30.4
758.669	20.16
758.847	28.36
759.025	108.23
759.203	14.02
759.381	34.5
759.559	52.93
759.737	52.93
759.915	73.41
760.092	85.7
760.27	71.36
760.448	28.36
760.626	79.56
760.804	9.92
760.981	69.32
761.159	85.7
761.337	30.4
761.515	112.32
761.692	22.21
761.87	-12.6
762.048	61.12
762.226	75.46
762.403	48.84
762.581	71.36
762.759	81.6
762.936	73.41
763.114	52.93
763.291	52.93
763.469	-4.41
763.647	69.32
763.824	75.46
764.002	52.93
764.179	11.97
764.357	36.55
764.534	67.27
764.712	-61.75
764.889	-4.41
765.066	102.08
765.244	-2.36
765.421	5.83
765.599	69.32
765.776	28.36
765.953	52.93
766.131	-0.32
766.308	36.55
766.485	36.55
766.663	32.45
766.84	3.78
767.017	44.74
767.194	48.84
767.372	24.26
767.549	120.52
767.726	-18.75
767.903	61.12
768.081	73.41
768.258	63.17
768.435	42.69
768.612	48.84
768.789	54.98
768.966	11.97
769.143	46.79
769.32	44.74
769.497	89.8
769.674	44.74
769.851	-33.08
770.028	38.6
770.205	93.89
770.382	87.75
770.559	61.12
770.736	28.36
770.913	7.88
771.09	118.47
771.267	-12.6
771.444	67.27
771.621	-18.75
771.798	65.22
771.975	67.27
772.151	61.12
772.328	110.28
772.505	24.26
772.682	57.03
772.859	65.22
773.035	77.51
773.212	104.13
773.389	97.99
773.565	77.51
773.742	54.98
773.919	69.32
774.096	83.65
774.272	69.32
774.449	75.46
774.625	69.32
774.802	44.74
774.979	93.89
775.155	48.84
775.332	36.55
775.508	93.89
775.685	36.55
775.861	54.98
776.038	34.5
776.214	46.79
776.391	65.22
776.567	77.51
776.744	69.32
776.92	61.12
777.096	52.93
777.273	44.74
777.449	54.98
777.626	-51.51
777.802	-0.32
777.978	30.4
778.155	36.55
778.331	20.16
778.507	52.93
778.683	87.75
778.86	104.13
779.036	59.08
779.212	48.84
779.388	48.84
779.565	28.36
779.741	102.08
779.917	22.21
780.093	11.97
780.269	97.99
780.445	18.12
780.621	46.79
780.797	-41.27
780.974	44.74
781.15	87.75
781.326	102.08
781.502	24.26
781.678	54.98
781.854	106.18
782.03	42.69
782.206	20.16
782.382	71.36
782.558	44.74
782.733	52.93
782.909	38.6
783.085	22.21
783.261	18.12
783.437	69.32
783.613	-4.41
783.789	73.41
783.965	75.46
784.14	50.88
784.316	-12.6
784.492	138.95
784.668	16.07
784.843	-2.36
785.019	3.78
785.195	-18.75
785.371	52.93
785.546	44.74
785.722	120.52
785.898	22.21
786.073	42.69
786.249	59.08
786.424	36.55
786.6	73.41
786.776	61.12
786.951	89.8
787.127	79.56
787.302	36.55
787.478	-35.13
787.653	46.79
787.829	24.26
788.004	-20.79
788.18	71.36
788.355	69.32
788.531	77.51
788.706	-0.32
788.881	73.41
789.057	93.89
789.232	16.07
789.408	110.28
789.583	3.78
789.758	57.03
789.934	9.92
790.109	38.6
790.284	38.6
790.459	46.79
790.635	3.78
790.81	85.7
790.985	3.78
791.16	93.89
791.336	93.89
791.511	44.74
791.686	89.8
791.861	46.79
792.036	59.08
792.211	79.56
792.387	48.84
792.562	153.28
792.737	145.09
792.912	11.97
793.087	14.02
793.262	65.22
793.437	3.78
793.612	110.28
793.787	114.37
793.962	30.4
794.137	-59.71
794.312	59.08
794.487	32.45
794.662	32.45
794.837	-10.55
795.011	3.78
795.186	67.27
795.361	52.93
795.536	30.4
795.711	95.94
795.886	-2.36
796.06	24.26
796.235	79.56
796.41	93.89
796.585	69.32
796.76	9.92
796.934	28.36
797.109	11.97
797.284	79.56
797.458	102.08
797.633	-4.41
797.808	20.16
797.982	69.32
798.157	36.55
798.332	20.16
798.506	11.97
798.681	-12.6
798.855	1.73
799.03	3.78
799.204	3.78
799.379	40.64
799.553	-20.79
799.728	38.6
799.902	16.07
800.077	69.32
800.251	44.74
800.426	48.84
800.6	57.03
800.775	16.07
800.949	36.55
801.123	32.45
801.298	-12.6
801.472	20.16
801.647	-94.52
801.821	73.41
801.995	85.7
802.169	85.7
802.344	48.84
802.518	151.23
802.692	69.32
802.867	30.4
803.041	-4.41
803.215	28.36
803.389	11.97
803.563	85.7
803.737	167.62
803.912	5.83
804.086	28.36
804.26	143.04
804.434	54.98
804.608	85.7
804.782	97.99
804.956	16.07
805.13	26.31
805.304	-0.32
805.478	38.6
805.652	106.18
805.826	14.02
806	-0.32
806.174	36.55
806.348	3.78
806.522	30.4
806.696	11.97
806.87	38.6
807.044	110.28
807.218	36.55
807.392	3.78
807.566	83.65
807.739	108.23
807.913	40.64
808.087	-37.18
808.261	24.26
808.435	71.36
808.608	-0.32
808.782	73.41
808.956	20.16
809.13	36.55
809.303	7.88
809.477	104.13
809.651	7.88
809.824	57.03
809.998	102.08
810.172	28.36
810.345	65.22
810.519	22.21
810.692	24.26
810.866	-0.32
811.04	-37.18
811.213	40.64
811.387	61.12
811.56	79.56
811.734	52.93
811.907	73.41
812.081	14.02
812.254	26.31
812.428	34.5
812.601	32.45
812.774	9.92
812.948	28.36
813.121	69.32
813.295	61.12
813.468	30.4
813.641	75.46
813.815	-18.75
813.988	85.7
814.161	81.6
814.335	20.16
814.508	7.88
814.681	65.22
814.854	44.74
815.028	85.7
815.201	28.36
815.374	28.36
815.547	57.03
815.72	-18.75
815.894	-16.7
816.067	52.93
816.24	9.92
816.413	54.98
816.586	30.4
816.759	11.97
816.932	77.51
817.105	40.64
817.278	57.03
817.452	30.4
817.625	136.9
817.798	69.32
817.971	73.41
818.144	69.32
818.317	52.93
818.49	79.56
818.662	93.89
818.835	18.12
819.008	32.45
819.181	22.21
819.354	11.97
819.527	132.8
819.7	52.93
819.873	-18.75
820.046	52.93
820.218	63.17
820.391	-0.32
820.564	-41.27
820.737	104.13
820.909	-59.71
821.082	44.74
821.255	61.12
821.428	52.93
821.6	73.41
821.773	36.55
821.946	87.75
822.118	52.93
822.291	75.46
822.464	3.78
822.636	54.98
822.809	-8.51
822.982	44.74
823.154	61.12
823.327	-14.65
823.499	44.74
823.672	-2.36
823.844	11.97
824.017	97.99
824.189	48.84
824.362	71.36
824.534	50.88
824.707	93.89
824.879	20.16
825.052	102.08
825.224	93.89
825.396	44.74
825.569	36.55
825.741	46.79
825.914	18.12
826.086	1.73
826.258	69.32
826.431	100.04
826.603	65.22
826.775	-74.04
826.947	32.45
827.12	-12.6
827.292	32.45
827.464	-16.7
827.636	69.32
827.809	-41.27
827.981	3.78
828.153	-28.99
828.325	28.36
828.497	-4.41
828.669	54.98
828.842	44.74
829.014	-0.32
829.186	5.83
829.358	52.93
829.53	52.93
829.702	-4.41
829.874	85.7
830.046	63.17
830.218	54.98
830.39	42.69
830.562	7.88
830.734	38.6
830.906	108.23
831.078	22.21
831.25	11.97
831.422	77.51
831.594	-2.36
831.766	7.88
831.937	95.94
832.109	36.55
832.281	-4.41
832.453	44.74
832.625	-37.18
832.797	9.92
832.968	28.36
833.14	40.64
833.312	-45.37
833.484	46.79
833.655	69.32
833.827	110.28
833.999	50.88
834.171	44.74
834.342	57.03
834.514	85.7
834.686	28.36
834.857	128.71
835.029	28.36
835.2	-20.79
835.372	36.55
835.544	71.36
835.715	87.75
835.887	-35.13
836.058	44.74
836.23	85.7
836.401	85.7
836.573	28.36
836.744	-12.6
836.916	36.55
837.087	48.84
837.259	28.36
837.43	28.36
837.602	93.89
837.773	20.16
837.945	71.36
838.116	-37.18
838.287	52.93
838.459	52.93
838.63	48.84
838.801	95.94
838.973	3.78
839.144	-18.75
839.315	20.16
839.487	3.78
839.658	38.6
839.829	3.78
840	38.6
840.172	24.26
840.343	54.98
840.514	-2.36
840.685	-12.6
840.856	38.6
841.027	-12.6
841.199	-0.32
841.37	52.93
841.541	-2.36
841.712	11.97
841.883	30.4
842.054	16.07
842.225	22.21
842.396	32.45
842.567	42.69
842.738	112.32
842.909	11.97
843.08	73.41
843.251	32.45
843.422	24.26
843.593	14.02
843.764	46.79
843.935	22.21
844.106	-0.32
844.277	71.36
844.448	22.21
844.619	63.17
844.79	-28.99
844.96	-33.08
845.131	73.41
845.302	40.64
845.473	63.17
845.644	67.27
845.814	11.97
845.985	36.55
846.156	89.8
846.327	77.51
846.497	-20.79
846.668	38.6
846.839	77.51
847.01	77.51
847.18	38.6
847.351	18.12
847.522	18.12
847.692	52.93
847.863	22.21
848.033	42.69
848.204	52.93
848.375	59.08
848.545	77.51
848.716	83.65
848.886	38.6
849.057	85.7
849.227	38.6
849.398	44.74
849.568	108.23
849.739	85.7
849.909	102.08
850.08	-4.41
850.25	-12.6
850.421	16.07
850.591	-14.65
850.761	73.41
850.932	-16.7
851.102	-22.84
851.272	-2.36
851.443	79.56
851.613	16.07
851.783	34.5
851.954	9.92
852.124	65.22
852.294	61.12
852.465	54.98
852.635	85.7
852.805	59.08
852.975	44.74
853.145	59.08
853.316	126.66
853.486	-10.55
853.656	61.12
853.826	48.84
853.996	63.17
854.166	20.16
854.337	44.74
854.507	44.74
854.677	52.93
854.847	69.32
855.017	46.79
855.187	71.36
855.357	83.65
855.527	124.61
855.697	30.4
855.867	89.8
856.037	28.36
856.207	52.93
856.377	91.84
856.547	63.17
856.717	52.93
856.887	5.83
857.057	20.16
857.227	32.45
857.397	65.22
857.566	30.4
857.736	-26.94
857.906	20.16
858.076	36.55
858.246	38.6
858.416	22.21
858.585	-16.7
858.755	11.97
858.925	24.26
859.095	52.93
859.264	18.12
859.434	-4.41
859.604	75.46
859.774	54.98
859.943	-12.6
860.113	44.74
860.283	93.89
860.452	32.45
860.622	57.03
860.791	-37.18
860.961	48.84
861.131	-2.36
861.3	-12.6
861.47	85.7
861.639	14.02
861.809	-31.03
861.978	52.93
862.148	44.74
862.318	-65.85
862.487	93.89
862.657	52.93
862.826	54.98
862.995	18.12
863.165	61.12
863.334	3.78
863.504	36.55
863.673	7.88
863.843	36.55
864.012	52.93
864.181	11.97
864.351	-10.55
864.52	63.17
864.689	71.36
864.859	-4.41
865.028	126.66
865.197	44.74
865.366	24.26
865.536	63.17
865.705	16.07
865.874	77.51
866.043	63.17
866.213	36.55
866.382	52.93
866.551	-10.55
866.72	22.21
866.889	28.36
867.059	32.45
867.228	48.84
867.397	3.78
867.566	38.6
867.735	44.74
867.904	-2.36
868.073	48.84
868.242	-61.75
868.411	52.93
868.58	3.78
868.749	57.03
868.918	11.97
869.087	75.46
869.256	-4.41
869.425	102.08
869.594	61.12
869.763	48.84
869.932	36.55
870.101	77.51
870.27	71.36
870.439	3.78
870.608	11.97
870.777	28.36
870.945	30.4
871.114	11.97
871.283	52.93
871.452	71.36
871.621	50.88
871.789	75.46
871.958	-82.23
872.127	89.8
872.296	77.51
872.464	85.7
872.633	-4.41
872.802	24.26
872.971	28.36
873.139	48.84
873.308	36.55
873.477	112.32
873.645	44.74
873.814	-4.41
873.983	36.55
874.151	32.45
874.32	16.07
874.488	52.93
874.657	-2.36
874.826	24.26
874.994	16.07
875.163	69.32
875.331	-26.94
875.5	54.98
875.668	-20.79
875.837	87.75
876.005	85.7
876.174	38.6
876.342	77.51
876.51	-33.08
876.679	57.03
876.847	44.74
877.016	46.79
877.184	-16.7
877.352	93.89
877.521	50.88
877.689	54.98
877.857	-6.46
878.026	77.51
878.194	-8.51
878.362	44.74
878.531	-2.36
878.699	48.84
878.867	61.12
879.036	22.21
879.204	89.8
879.372	50.88
879.54	-33.08
879.708	-18.75
879.877	61.12
880.045	73.41
880.213	-16.7
880.381	73.41
880.549	102.08
880.717	87.75
880.885	52.93
881.054	16.07
881.222	102.08
881.39	87.75
881.558	48.84
881.726	81.6
881.894	28.36
882.062	93.89
882.23	-8.51
882.398	54.98
882.566	52.93
882.734	40.64
882.902	44.74
883.07	85.7
883.238	-2.36
883.406	81.6
883.574	-0.32
883.741	97.99
883.909	24.26
884.077	75.46
884.245	22.21
884.413	118.47
884.581	77.51
884.749	118.47
884.916	7.88
885.084	32.45
885.252	63.17
885.42	40.64
885.587	-0.32
885.755	81.6
885.923	36.55
886.091	69.32
886.258	22.21
886.426	65.22
886.594	52.93
886.761	28.36
886.929	22.21
887.097	14.02
887.264	85.7
887.432	165.57
887.6	5.83
887.767	48.84
887.935	102.08
888.102	-33.08
888.27	42.69
888.438	42.69
888.605	-2.36
888.773	79.56
888.94	57.03
889.108	-53.56
889.275	89.8
889.443	85.7
889.61	48.84
889.778	44.74
889.945	77.51
890.112	79.56
890.28	28.36
890.447	28.36
890.615	44.74
890.782	52.93
890.949	95.94
891.117	97.99
891.284	14.02
891.452	36.55
891.619	44.74
891.786	69.32
891.953	28.36
892.121	38.6
892.288	-6.46
892.455	-76.09
892.623	9.92
892.79	-53.56
892.957	44.74
893.124	38.6
893.291	30.4
893.459	-12.6
893.626	26.31
893.793	22.21
893.96	69.32
894.127	93.89
894.294	20.16
894.461	44.74
894.629	3.78
894.796	-18.75
894.963	3.78
895.13	71.36
895.297	54.98
895.464	61.12
895.631	28.36
895.798	-4.41
895.965	69.32
896.132	153.28
896.299	44.74
896.466	38.6
896.633	48.84
896.8	32.45
896.967	77.51
897.134	-8.51
897.301	102.08
897.467	46.79
897.634	30.4
897.801	48.84
897.968	40.64
898.135	77.51
898.302	63.17
898.469	3.78
898.635	89.8
898.802	-4.41
898.969	42.69
899.136	-4.41
899.303	16.07
