Data from dark_USB4E013581_00017.txt Node
Date: Wed May 08 15:05:46 EDT 2019
User: dh1006
Spectrometer: USB4E01358
Autoset integration time: false
Trigger mode: 4
Integration Time (sec): 2.925000E-2
Scans to average: 1
Electric dark correction enabled: true
Nonlinearity correction enabled: false
Boxcar width: 0
Stray light correction enabled: false
XAxis mode: Wavelengths
Stop averaging: false
Number of Pixels in Spectrum: 3648
>>>>>Begin Spectral Data<<<<<
176.727	-13.55
176.966	-13.55
177.205	-13.55
177.444	-15.6
177.683	-64.75
177.922	49.94
178.161	11.03
178.4	13.08
178.638	43.8
178.877	-13.55
179.116	15.12
179.355	-7.4
179.593	8.98
179.832	0.79
180.071	33.56
180.309	-1.26
180.548	0.79
180.786	41.75
181.025	-7.4
181.263	-11.5
181.502	66.32
181.74	27.41
181.979	33.56
182.217	-7.4
182.456	78.61
182.694	19.22
182.932	13.08
183.17	-70.89
183.409	39.7
183.647	-60.65
183.885	-46.32
184.123	-7.4
184.361	8.98
184.6	-44.27
184.838	6.93
185.076	45.84
185.314	111.38
185.552	-70.89
185.79	25.36
186.028	-15.6
186.266	23.32
186.503	13.08
186.741	-52.46
186.979	35.6
187.217	41.75
187.455	8.98
187.693	8.98
187.93	-83.18
188.168	27.41
188.406	25.36
188.643	-19.69
188.881	-3.31
189.119	23.32
189.356	41.75
189.594	29.46
189.831	-48.36
190.069	68.37
190.306	-31.98
190.543	-56.56
190.781	-46.32
191.018	-3.31
191.256	43.8
191.493	-7.4
191.73	-46.32
191.967	66.32
192.205	-44.27
192.442	-23.79
192.679	33.56
192.916	-31.98
193.153	49.94
193.39	35.6
193.628	2.84
193.865	-50.41
194.102	-48.36
194.339	-77.04
194.576	66.32
194.813	-38.12
195.049	45.84
195.286	13.08
195.523	-7.4
195.76	17.17
195.997	-9.45
196.234	86.8
196.47	-5.36
196.707	35.6
196.944	8.98
197.18	13.08
197.417	-54.51
197.654	4.88
197.89	-7.4
198.127	0.79
198.363	-23.79
198.6	41.75
198.836	103.19
199.073	-64.75
199.309	13.08
199.546	86.8
199.782	4.88
200.018	43.8
200.255	13.08
200.491	37.65
200.727	-23.79
200.963	60.18
201.199	41.75
201.436	33.56
201.672	-48.36
201.908	-15.6
202.144	-25.84
202.38	35.6
202.616	21.27
202.852	-15.6
203.088	-3.31
203.324	29.46
203.56	-68.84
203.796	8.98
204.032	33.56
204.268	-11.5
204.503	51.99
204.739	37.65
204.975	-54.51
205.211	0.79
205.446	37.65
205.682	21.27
205.918	19.22
206.153	11.03
206.389	-29.93
206.625	0.79
206.86	-7.4
207.096	4.88
207.331	80.66
207.567	19.22
207.802	29.46
208.037	-23.79
208.273	2.84
208.508	21.27
208.744	-29.93
208.979	-21.74
209.214	-68.84
209.449	13.08
209.685	-23.79
209.92	-7.4
210.155	-31.98
210.39	-7.4
210.625	-31.98
210.86	21.27
211.095	-5.36
211.33	11.03
211.565	-11.5
211.8	-36.08
212.035	25.36
212.27	-15.6
212.505	0.79
212.74	45.84
212.975	11.03
213.21	-52.46
213.444	-72.94
213.679	-21.74
213.914	33.56
214.149	21.27
214.383	-68.84
214.618	86.8
214.853	-7.4
215.087	74.51
215.322	-40.17
215.556	-44.27
215.791	-7.4
216.025	92.95
216.26	-7.4
216.494	15.12
216.729	27.41
216.963	43.8
217.197	8.98
217.432	25.36
217.666	0.79
217.9	-29.93
218.135	4.88
218.369	17.17
218.603	-46.32
218.837	-1.26
219.071	35.6
219.306	-7.4
219.54	19.22
219.774	17.17
220.008	-19.69
220.242	2.84
220.476	-9.45
220.71	37.65
220.944	-40.17
221.178	19.22
221.411	-3.31
221.645	76.56
221.879	8.98
222.113	-62.7
222.347	60.18
222.58	4.88
222.814	-7.4
223.048	-66.8
223.281	-13.55
223.515	-17.64
223.749	-23.79
223.982	33.56
224.216	-77.04
224.449	6.93
224.683	41.75
224.916	-29.93
225.15	-5.36
225.383	19.22
225.617	-7.4
225.85	-7.4
226.083	-5.36
226.317	19.22
226.55	11.03
226.783	2.84
227.016	33.56
227.25	27.41
227.483	78.61
227.716	41.75
227.949	25.36
228.182	-87.27
228.415	-15.6
228.648	-17.64
228.881	-15.6
229.114	-5.36
229.347	-81.13
229.58	-3.31
229.813	-36.08
230.046	41.75
230.279	23.32
230.512	-29.93
230.745	47.89
230.977	11.03
231.21	17.17
231.443	49.94
231.675	41.75
231.908	58.13
232.141	-3.31
232.373	31.51
232.606	11.03
232.839	8.98
233.071	-36.08
233.304	-27.88
233.536	8.98
233.769	25.36
234.001	0.79
234.233	-23.79
234.466	-36.08
234.698	-5.36
234.93	-15.6
235.163	2.84
235.395	8.98
235.627	-1.26
235.86	-23.79
236.092	41.75
236.324	-29.93
236.556	72.47
236.788	-46.32
237.02	-15.6
237.252	-21.74
237.484	-15.6
237.716	-7.4
237.948	49.94
238.18	-23.79
238.412	60.18
238.644	-21.74
238.876	-64.75
239.108	58.13
239.34	-27.88
239.571	19.22
239.803	-11.5
240.035	-40.17
240.267	-15.6
240.498	54.03
240.73	45.84
240.962	-5.36
241.193	23.32
241.425	25.36
241.656	60.18
241.888	-23.79
242.119	82.71
242.351	-21.74
242.582	25.36
242.814	-72.94
243.045	0.79
243.277	-15.6
243.508	25.36
243.739	-31.98
243.971	56.08
244.202	60.18
244.433	-54.51
244.664	-29.93
244.896	-36.08
245.127	54.03
245.358	49.94
245.589	-13.55
245.82	-60.65
246.051	-60.65
246.282	66.32
246.513	0.79
246.744	6.93
246.975	27.41
247.206	21.27
247.437	2.84
247.668	0.79
247.899	-27.88
248.129	4.88
248.36	8.98
248.591	99.09
248.822	8.98
249.052	19.22
249.283	37.65
249.514	37.65
249.744	-83.18
249.975	107.28
250.206	47.89
250.436	0.79
250.667	-31.98
250.897	0.79
251.128	58.13
251.358	41.75
251.589	27.41
251.819	-31.98
252.049	-15.6
252.28	-11.5
252.51	-29.93
252.74	0.79
252.971	17.17
253.201	-40.17
253.431	68.37
253.661	8.98
253.891	107.28
254.121	25.36
254.352	47.89
254.582	49.94
254.812	19.22
255.042	4.88
255.272	66.32
255.502	-5.36
255.732	-95.47
255.962	70.42
256.192	0.79
256.421	6.93
256.651	-11.5
256.881	-48.36
257.111	-29.93
257.341	33.56
257.57	23.32
257.8	-42.22
258.03	-66.8
258.259	35.6
258.489	11.03
258.719	-31.98
258.948	4.88
259.178	-5.36
259.407	-7.4
259.637	51.99
259.866	45.84
260.096	4.88
260.325	66.32
260.555	39.7
260.784	0.79
261.013	21.27
261.243	-40.17
261.472	70.42
261.701	45.84
261.931	23.32
262.16	8.98
262.389	-7.4
262.618	25.36
262.847	47.89
263.076	-19.69
263.305	66.32
263.535	-23.79
263.764	43.8
263.993	-13.55
264.222	2.84
264.451	0.79
264.679	11.03
264.908	-7.4
265.137	33.56
265.366	17.17
265.595	6.93
265.824	-62.7
266.053	17.17
266.281	11.03
266.51	54.03
266.739	51.99
266.967	-27.88
267.196	33.56
267.425	33.56
267.653	-56.56
267.882	-19.69
268.11	8.98
268.339	-64.75
268.567	-48.36
268.796	4.88
269.024	6.93
269.253	39.7
269.481	25.36
269.709	21.27
269.938	-13.55
270.166	37.65
270.394	-13.55
270.623	-29.93
270.851	-23.79
271.079	-40.17
271.307	-31.98
271.535	6.93
271.764	-54.51
271.992	25.36
272.22	-15.6
272.448	27.41
272.676	21.27
272.904	-95.47
273.132	-3.31
273.36	-38.12
273.588	11.03
273.816	0.79
274.043	-17.64
274.271	6.93
274.499	-36.08
274.727	8.98
274.955	0.79
275.182	-11.5
275.41	78.61
275.638	23.32
275.866	58.13
276.093	58.13
276.321	-62.7
276.548	-36.08
276.776	-19.69
277.003	-29.93
277.231	-44.27
277.458	-3.31
277.686	-11.5
277.913	-5.36
278.141	2.84
278.368	8.98
278.595	11.03
278.823	-5.36
279.05	68.37
279.277	-31.98
279.505	49.94
279.732	68.37
279.959	17.17
280.186	-19.69
280.413	-56.56
280.641	2.84
280.868	23.32
281.095	-89.32
281.322	-31.98
281.549	-7.4
281.776	72.47
282.003	8.98
282.23	11.03
282.457	27.41
282.683	13.08
282.91	51.99
283.137	-13.55
283.364	-13.55
283.591	-70.89
283.818	-23.79
284.044	-19.69
284.271	-27.88
284.498	54.03
284.724	41.75
284.951	25.36
285.178	2.84
285.404	-21.74
285.631	-3.31
285.857	-21.74
286.084	68.37
286.31	-15.6
286.537	25.36
286.763	2.84
286.99	19.22
287.216	-15.6
287.442	-52.46
287.669	-31.98
287.895	6.93
288.121	2.84
288.347	8.98
288.574	-9.45
288.8	41.75
289.026	-7.4
289.252	-40.17
289.478	-77.04
289.704	-52.46
289.931	-56.56
290.157	-40.17
290.383	-13.55
290.609	68.37
290.835	-31.98
291.06	-29.93
291.286	-3.31
291.512	21.27
291.738	56.08
291.964	8.98
292.19	15.12
292.416	41.75
292.641	-19.69
292.867	0.79
293.093	-29.93
293.319	45.84
293.544	19.22
293.77	37.65
293.995	25.36
294.221	-19.69
294.447	-56.56
294.672	39.7
294.898	-21.74
295.123	58.13
295.349	13.08
295.574	6.93
295.799	-11.5
296.025	2.84
296.25	17.17
296.476	49.94
296.701	35.6
296.926	-9.45
297.151	-3.31
297.377	84.75
297.602	41.75
297.827	51.99
298.052	17.17
298.277	8.98
298.502	-13.55
298.727	35.6
298.953	-34.03
299.178	45.84
299.403	-48.36
299.628	-31.98
299.852	41.75
300.077	0.79
300.302	-29.93
300.527	-25.84
300.752	-3.31
300.977	58.13
301.202	-7.4
301.426	68.37
301.651	-9.45
301.876	-64.75
302.101	-21.74
302.325	-7.4
302.55	13.08
302.775	-23.79
302.999	6.93
303.224	-15.6
303.448	47.89
303.673	-13.55
303.897	27.41
304.122	-27.88
304.346	33.56
304.571	-52.46
304.795	11.03
305.019	33.56
305.244	-48.36
305.468	8.98
305.692	-3.31
305.917	29.46
306.141	33.56
306.365	56.08
306.589	62.23
306.813	17.17
307.038	8.98
307.262	51.99
307.486	-15.6
307.71	-3.31
307.934	-15.6
308.158	-23.79
308.382	-48.36
308.606	15.12
308.83	-15.6
309.054	41.75
309.278	-19.69
309.502	-5.36
309.725	25.36
309.949	35.6
310.173	-23.79
310.397	-31.98
310.62	-23.79
310.844	4.88
311.068	-29.93
311.292	21.27
311.515	33.56
311.739	80.66
311.962	-15.6
312.186	33.56
312.41	-1.26
312.633	37.65
312.857	56.08
313.08	68.37
313.303	-15.6
313.527	58.13
313.75	68.37
313.974	-13.55
314.197	-27.88
314.42	17.17
314.644	-25.84
314.867	0.79
315.09	-7.4
315.313	33.56
315.536	21.27
315.76	-19.69
315.983	37.65
316.206	54.03
316.429	29.46
316.652	-23.79
316.875	2.84
317.098	33.56
317.321	-48.36
317.544	-23.79
317.767	-54.51
317.99	-56.56
318.213	-38.12
318.436	-34.03
318.658	4.88
318.881	-38.12
319.104	51.99
319.327	-54.51
319.55	-29.93
319.772	-56.56
319.995	17.17
320.218	-15.6
320.44	37.65
320.663	107.28
320.885	4.88
321.108	35.6
321.331	23.32
321.553	49.94
321.776	-19.69
321.998	0.79
322.22	-21.74
322.443	-11.5
322.665	-48.36
322.888	-7.4
323.11	27.41
323.332	-27.88
323.555	-15.6
323.777	49.94
323.999	-19.69
324.221	-17.64
324.443	-31.98
324.666	-1.26
324.888	19.22
325.11	23.32
325.332	-23.79
325.554	-48.36
325.776	25.36
325.998	8.98
326.22	-11.5
326.442	31.51
326.664	33.56
326.886	19.22
327.108	-15.6
327.33	-62.7
327.551	-11.5
327.773	-44.27
327.995	41.75
328.217	-58.6
328.439	-40.17
328.66	21.27
328.882	-7.4
329.104	17.17
329.325	-44.27
329.547	21.27
329.769	-13.55
329.99	-21.74
330.212	-1.26
330.433	0.79
330.655	25.36
330.876	-23.79
331.098	-19.69
331.319	-48.36
331.54	-11.5
331.762	33.56
331.983	-3.31
332.204	0.79
332.426	11.03
332.647	-68.84
332.868	-62.7
333.089	-36.08
333.311	86.8
333.532	4.88
333.753	-52.46
333.974	27.41
334.195	-11.5
334.416	51.99
334.637	35.6
334.858	62.23
335.079	-48.36
335.3	-13.55
335.521	-31.98
335.742	-5.36
335.963	35.6
336.184	68.37
336.405	0.79
336.626	13.08
336.846	37.65
337.067	17.17
337.288	-29.93
337.509	29.46
337.729	-13.55
337.95	17.17
338.171	8.98
338.391	88.85
338.612	2.84
338.833	2.84
339.053	66.32
339.274	58.13
339.494	-23.79
339.715	-15.6
339.935	-40.17
340.156	23.32
340.376	76.56
340.596	21.27
340.817	41.75
341.037	-9.45
341.257	-85.23
341.478	13.08
341.698	2.84
341.918	8.98
342.138	-7.4
342.359	54.03
342.579	25.36
342.799	8.98
343.019	-40.17
343.239	-29.93
343.459	-68.84
343.679	-29.93
343.899	19.22
344.119	37.65
344.339	-5.36
344.559	37.65
344.779	-13.55
344.999	-23.79
345.219	-15.6
345.439	58.13
345.658	8.98
345.878	4.88
346.098	0.79
346.318	23.32
346.537	-21.74
346.757	47.89
346.977	17.17
347.196	2.84
347.416	-15.6
347.636	8.98
347.855	60.18
348.075	49.94
348.294	72.47
348.514	45.84
348.733	33.56
348.953	-31.98
349.172	8.98
349.392	25.36
349.611	-31.98
349.83	-40.17
350.05	-13.55
350.269	-9.45
350.488	-72.94
350.707	-7.4
350.927	-11.5
351.146	35.6
351.365	-93.42
351.584	25.36
351.803	2.84
352.023	-56.56
352.242	-62.7
352.461	33.56
352.68	33.56
352.899	-29.93
353.118	19.22
353.337	27.41
353.556	2.84
353.775	-7.4
353.993	2.84
354.212	0.79
354.431	66.32
354.65	-19.69
354.869	-60.65
355.088	8.98
355.306	23.32
355.525	-9.45
355.744	35.6
355.962	19.22
356.181	33.56
356.4	-40.17
356.618	29.46
356.837	33.56
357.055	-27.88
357.274	58.13
357.492	8.98
357.711	-5.36
357.929	-9.45
358.148	-44.27
358.366	0.79
358.585	-48.36
358.803	43.8
359.021	21.27
359.24	45.84
359.458	-31.98
359.676	-27.88
359.894	-34.03
360.113	2.84
360.331	-19.69
360.549	-25.84
360.767	-40.17
360.985	-23.79
361.203	6.93
361.421	-58.6
361.639	4.88
361.857	-36.08
362.075	17.17
362.293	41.75
362.511	37.65
362.729	49.94
362.947	-7.4
363.165	4.88
363.383	8.98
363.601	2.84
363.819	29.46
364.036	-46.32
364.254	-58.6
364.472	-31.98
364.689	37.65
364.907	13.08
365.125	54.03
365.342	-3.31
365.56	19.22
365.778	8.98
365.995	-64.75
366.213	29.46
366.43	21.27
366.648	17.17
366.865	60.18
367.083	-52.46
367.3	-11.5
367.517	19.22
367.735	-7.4
367.952	17.17
368.17	25.36
368.387	-1.26
368.604	11.03
368.821	29.46
369.039	-21.74
369.256	17.17
369.473	-52.46
369.69	11.03
369.907	31.51
370.124	37.65
370.341	0.79
370.558	-81.13
370.776	66.32
370.993	31.51
371.21	27.41
371.426	-56.56
371.643	2.84
371.86	-15.6
372.077	-70.89
372.294	-23.79
372.511	15.12
372.728	-29.93
372.945	-15.6
373.161	-15.6
373.378	13.08
373.595	-31.98
373.811	58.13
374.028	21.27
374.245	0.79
374.461	-52.46
374.678	51.99
374.895	-29.93
375.111	17.17
375.328	-15.6
375.544	64.27
375.761	-25.84
375.977	-7.4
376.194	35.6
376.41	41.75
376.626	31.51
376.843	-40.17
377.059	54.03
377.275	0.79
377.492	-34.03
377.708	13.08
377.924	11.03
378.14	35.6
378.357	49.94
378.573	-23.79
378.789	-23.79
379.005	35.6
379.221	33.56
379.437	-7.4
379.653	-3.31
379.869	4.88
380.085	4.88
380.301	-11.5
380.517	-38.12
380.733	25.36
380.949	8.98
381.165	-19.69
381.381	0.79
381.597	-64.75
381.813	-7.4
382.028	8.98
382.244	-56.56
382.46	-23.79
382.676	-48.36
382.891	68.37
383.107	-15.6
383.323	-11.5
383.538	-36.08
383.754	17.17
383.969	0.79
384.185	-7.4
384.4	19.22
384.616	17.17
384.831	37.65
385.047	21.27
385.262	13.08
385.478	-23.79
385.693	-7.4
385.909	-56.56
386.124	4.88
386.339	2.84
386.554	-3.31
386.77	-64.75
386.985	-54.51
387.2	-17.64
387.415	-54.51
387.631	-81.13
387.846	-56.56
388.061	-27.88
388.276	41.75
388.491	-34.03
388.706	19.22
388.921	-25.84
389.136	51.99
389.351	56.08
389.566	-15.6
389.781	-19.69
389.996	25.36
390.211	31.51
390.426	45.84
390.641	4.88
390.855	-56.56
391.07	21.27
391.285	37.65
391.5	-5.36
391.714	21.27
391.929	-5.36
392.144	-23.79
392.358	-64.75
392.573	2.84
392.788	17.17
393.002	21.27
393.217	8.98
393.431	-23.79
393.646	-48.36
393.86	-105.71
394.075	-38.12
394.289	11.03
394.504	-68.84
394.718	-3.31
394.933	78.61
395.147	25.36
395.361	-15.6
395.576	27.41
395.79	-40.17
396.004	-23.79
396.218	29.46
396.432	25.36
396.647	39.7
396.861	6.93
397.075	37.65
397.289	60.18
397.503	-27.88
397.717	-70.89
397.931	-15.6
398.145	-56.56
398.359	54.03
398.573	-9.45
398.787	-3.31
399.001	-13.55
399.215	-29.93
399.429	21.27
399.643	17.17
399.857	-34.03
400.07	25.36
400.284	74.51
400.498	33.56
400.712	-44.27
400.925	-7.4
401.139	-97.51
401.353	13.08
401.566	-13.55
401.78	29.46
401.994	-97.51
402.207	-40.17
402.421	86.8
402.634	-5.36
402.848	-15.6
403.061	70.42
403.275	-58.6
403.488	11.03
403.702	19.22
403.915	49.94
404.128	19.22
404.342	0.79
404.555	-17.64
404.768	-40.17
404.982	33.56
405.195	-23.79
405.408	-23.79
405.621	41.75
405.835	-21.74
406.048	-11.5
406.261	-19.69
406.474	8.98
406.687	-56.56
406.9	0.79
407.113	-89.32
407.326	-11.5
407.539	-64.75
407.752	0.79
407.965	8.98
408.178	-11.5
408.391	0.79
408.604	35.6
408.817	-9.45
409.029	17.17
409.242	-7.4
409.455	76.56
409.668	37.65
409.881	2.84
410.093	-38.12
410.306	8.98
410.519	-19.69
410.731	13.08
410.944	-44.27
411.157	13.08
411.369	17.17
411.582	-21.74
411.794	-23.79
412.007	25.36
412.219	43.8
412.432	11.03
412.644	-70.89
412.857	-34.03
413.069	-5.36
413.281	-13.55
413.494	-3.31
413.706	-27.88
413.918	-34.03
414.131	68.37
414.343	-38.12
414.555	11.03
414.767	21.27
414.979	-113.9
415.192	-7.4
415.404	-1.26
415.616	37.65
415.828	11.03
416.04	68.37
416.252	45.84
416.464	8.98
416.676	45.84
416.888	-40.17
417.1	-7.4
417.312	-19.69
417.524	2.84
417.736	19.22
417.948	-15.6
418.159	-1.26
418.371	8.98
418.583	-27.88
418.795	19.22
419.007	43.8
419.218	25.36
419.43	13.08
419.642	-46.32
419.853	4.88
420.065	37.65
420.276	-46.32
420.488	-21.74
420.7	-62.7
420.911	-52.46
421.123	13.08
421.334	41.75
421.546	8.98
421.757	19.22
421.969	-105.71
422.18	0.79
422.391	-5.36
422.603	8.98
422.814	-11.5
423.025	45.84
423.237	-7.4
423.448	-48.36
423.659	25.36
423.87	-7.4
424.082	13.08
424.293	-7.4
424.504	13.08
424.715	0.79
424.926	-31.98
425.137	-31.98
425.348	-77.04
425.559	-3.31
425.77	-15.6
425.981	-7.4
426.192	-31.98
426.403	-81.13
426.614	25.36
426.825	13.08
427.036	-27.88
427.247	-79.08
427.458	2.84
427.668	29.46
427.879	-46.32
428.09	41.75
428.301	-58.6
428.511	33.56
428.722	-48.36
428.933	29.46
429.143	25.36
429.354	2.84
429.565	11.03
429.775	-23.79
429.986	68.37
430.196	-5.36
430.407	-7.4
430.617	35.6
430.828	-11.5
431.038	4.88
431.249	74.51
431.459	8.98
431.669	-1.26
431.88	25.36
432.09	-46.32
432.3	58.13
432.511	17.17
432.721	6.93
432.931	-40.17
433.141	-52.46
433.351	-56.56
433.562	107.28
433.772	27.41
433.982	8.98
434.192	-13.55
434.402	25.36
434.612	-17.64
434.822	11.03
435.032	-54.51
435.242	66.32
435.452	-15.6
435.662	58.13
435.872	33.56
436.082	8.98
436.292	37.65
436.502	-3.31
436.711	25.36
436.921	-46.32
437.131	41.75
437.341	-40.17
437.551	45.84
437.76	-27.88
437.97	-23.79
438.18	-64.75
438.389	-27.88
438.599	-5.36
438.808	-66.8
439.018	-23.79
439.228	0.79
439.437	19.22
439.647	25.36
439.856	2.84
440.066	-54.51
440.275	49.94
440.484	-34.03
440.694	35.6
440.903	-25.84
441.113	0.79
441.322	-66.8
441.531	-23.79
441.741	-15.6
441.95	-89.32
442.159	-7.4
442.368	-23.79
442.577	19.22
442.787	70.42
442.996	-52.46
443.205	19.22
443.414	41.75
443.623	-13.55
443.832	-85.23
444.041	-56.56
444.25	-40.17
444.459	33.56
444.668	33.56
444.877	13.08
445.086	45.84
445.295	-56.56
445.504	-31.98
445.713	-23.79
445.922	45.84
446.13	-13.55
446.339	19.22
446.548	-31.98
446.757	-64.75
446.965	-70.89
447.174	-29.93
447.383	21.27
447.591	-19.69
447.8	-31.98
448.009	4.88
448.217	-27.88
448.426	-29.93
448.634	8.98
448.843	76.56
449.051	-1.26
449.26	0.79
449.468	-7.4
449.677	-13.55
449.885	4.88
450.093	-54.51
450.302	-29.93
450.51	25.36
450.719	-50.41
450.927	-56.56
451.135	-44.27
451.343	-40.17
451.552	-11.5
451.76	-38.12
451.968	37.65
452.176	45.84
452.384	19.22
452.592	49.94
452.8	-3.31
453.009	-38.12
453.217	-19.69
453.425	62.23
453.633	-48.36
453.841	19.22
454.049	-3.31
454.257	-31.98
454.464	-46.32
454.672	-48.36
454.88	-54.51
455.088	25.36
455.296	-19.69
455.504	2.84
455.711	25.36
455.919	-31.98
456.127	-52.46
456.335	21.27
456.542	4.88
456.75	-29.93
456.958	-15.6
457.165	-44.27
457.373	-54.51
457.581	74.51
457.788	49.94
457.996	-19.69
458.203	-72.94
458.411	-56.56
458.618	-46.32
458.826	19.22
459.033	-44.27
459.24	54.03
459.448	19.22
459.655	-56.56
459.863	2.84
460.07	-23.79
460.277	60.18
460.484	31.51
460.692	-5.36
460.899	29.46
461.106	-40.17
461.313	-44.27
461.52	25.36
461.728	-72.94
461.935	29.46
462.142	-5.36
462.349	33.56
462.556	19.22
462.763	-87.27
462.97	-7.4
463.177	-21.74
463.384	-29.93
463.591	29.46
463.798	-46.32
464.005	-7.4
464.212	-85.23
464.418	33.56
464.625	-40.17
464.832	-38.12
465.039	-29.93
465.246	4.88
465.452	-44.27
465.659	-19.69
465.866	-15.6
466.072	-21.74
466.279	-3.31
466.486	8.98
466.692	-36.08
466.899	-34.03
467.105	-19.69
467.312	-7.4
467.519	29.46
467.725	45.84
467.931	-68.84
468.138	47.89
468.344	-46.32
468.551	19.22
468.757	-31.98
468.964	41.75
469.17	11.03
469.376	-23.79
469.583	-29.93
469.789	-44.27
469.995	92.95
470.201	-72.94
470.408	-77.04
470.614	-29.93
470.82	17.17
471.026	8.98
471.232	-52.46
471.438	-56.56
471.644	45.84
471.85	-5.36
472.056	2.84
472.262	8.98
472.468	17.17
472.674	76.56
472.88	45.84
473.086	-15.6
473.292	-15.6
473.498	25.36
473.704	-44.27
473.91	41.75
474.116	37.65
474.321	0.79
474.527	-29.93
474.733	33.56
474.939	25.36
475.144	13.08
475.35	21.27
475.556	8.98
475.761	56.08
475.967	33.56
476.173	-15.6
476.378	2.84
476.584	25.36
476.789	-15.6
476.995	-89.32
477.2	-34.03
477.406	17.17
477.611	-77.04
477.817	-29.93
478.022	33.56
478.227	-11.5
478.433	-15.6
478.638	58.13
478.843	-7.4
479.049	8.98
479.254	29.46
479.459	-36.08
479.664	-15.6
479.87	-52.46
480.075	27.41
480.28	-56.56
480.485	-7.4
480.69	-56.56
480.895	-52.46
481.1	-19.69
481.306	-36.08
481.511	-72.94
481.716	-31.98
481.921	-7.4
482.126	8.98
482.33	-21.74
482.535	-23.79
482.74	33.56
482.945	33.56
483.15	-23.79
483.355	-68.84
483.56	-23.79
483.765	-31.98
483.969	13.08
484.174	-13.55
484.379	45.84
484.583	33.56
484.788	-3.31
484.993	-13.55
485.197	-48.36
485.402	13.08
485.607	0.79
485.811	-40.17
486.016	43.8
486.22	31.51
486.425	-11.5
486.629	97.04
486.834	-15.6
487.038	-7.4
487.243	2.84
487.447	-15.6
487.652	35.6
487.856	27.41
488.06	2.84
488.265	19.22
488.469	-38.12
488.673	94.99
488.877	-54.51
489.082	-81.13
489.286	-9.45
489.49	-3.31
489.694	-13.55
489.898	-56.56
490.102	25.36
490.307	25.36
490.511	27.41
490.715	-5.36
490.919	51.99
491.123	11.03
491.327	21.27
491.531	11.03
491.735	66.32
491.939	-1.26
492.143	29.46
492.346	-21.74
492.55	-5.36
492.754	35.6
492.958	27.41
493.162	-23.79
493.366	33.56
493.569	49.94
493.773	11.03
493.977	-3.31
494.18	8.98
494.384	-15.6
494.588	49.94
494.791	15.12
494.995	74.51
495.199	-42.22
495.402	-64.75
495.606	-48.36
495.809	43.8
496.013	29.46
496.216	17.17
496.42	4.88
496.623	0.79
496.827	29.46
497.03	-11.5
497.233	25.36
497.437	-31.98
497.64	11.03
497.843	66.32
498.047	33.56
498.25	8.98
498.453	-44.27
498.656	-3.31
498.86	19.22
499.063	-19.69
499.266	-62.7
499.469	74.51
499.672	-31.98
499.875	-31.98
500.078	15.12
500.281	-27.88
500.484	8.98
500.687	13.08
500.89	45.84
501.093	-19.69
501.296	-7.4
501.499	-40.17
501.702	-11.5
501.905	-46.32
502.108	-46.32
502.311	58.13
502.514	21.27
502.716	29.46
502.919	11.03
503.122	11.03
503.325	-19.69
503.527	-3.31
503.73	33.56
503.933	8.98
504.135	76.56
504.338	-29.93
504.541	-5.36
504.743	0.79
504.946	11.03
505.148	-46.32
505.351	-5.36
505.553	19.22
505.756	-50.41
505.958	2.84
506.161	49.94
506.363	-13.55
506.565	-27.88
506.768	19.22
506.97	-3.31
507.172	0.79
507.375	-17.64
507.577	13.08
507.779	74.51
507.982	49.94
508.184	58.13
508.386	-40.17
508.588	21.27
508.79	33.56
508.993	25.36
509.195	-7.4
509.397	8.98
509.599	-124.14
509.801	8.98
510.003	-68.84
510.205	-5.36
510.407	21.27
510.609	17.17
510.811	17.17
511.013	58.13
511.215	-31.98
511.417	-15.6
511.618	-7.4
511.82	-40.17
512.022	11.03
512.224	-23.79
512.426	88.85
512.627	-7.4
512.829	-19.69
513.031	-17.64
513.233	11.03
513.434	21.27
513.636	-13.55
513.838	-40.17
514.039	-38.12
514.241	74.51
514.442	-44.27
514.644	54.03
514.845	-15.6
515.047	41.75
515.248	84.75
515.45	29.46
515.651	4.88
515.853	111.38
516.054	-1.26
516.256	-19.69
516.457	-89.32
516.658	-60.65
516.86	-7.4
517.061	99.09
517.262	-120.04
517.463	25.36
517.665	-19.69
517.866	-11.5
518.067	-40.17
518.268	17.17
518.469	4.88
518.67	25.36
518.872	-21.74
519.073	68.37
519.274	-5.36
519.475	-97.51
519.676	2.84
519.877	-7.4
520.078	74.51
520.279	-97.51
520.48	-44.27
520.681	-3.31
520.881	-3.31
521.082	-31.98
521.283	-31.98
521.484	-40.17
521.685	27.41
521.886	-23.79
522.086	-3.31
522.287	-15.6
522.488	35.6
522.689	-64.75
522.889	0.79
523.09	-64.75
523.291	0.79
523.491	35.6
523.692	29.46
523.892	-7.4
524.093	-5.36
524.294	-3.31
524.494	25.36
524.695	11.03
524.895	4.88
525.096	66.32
525.296	49.94
525.496	-19.69
525.697	-62.7
525.897	2.84
526.098	-23.79
526.298	-31.98
526.498	-38.12
526.699	62.23
526.899	-64.75
527.099	23.32
527.299	-29.93
527.499	-5.36
527.7	19.22
527.9	-52.46
528.1	17.17
528.3	-15.6
528.5	17.17
528.7	35.6
528.9	-5.36
529.1	29.46
529.3	19.22
529.5	-7.4
529.7	49.94
529.9	35.6
530.1	-19.69
530.3	-13.55
530.5	13.08
530.7	-68.84
530.9	8.98
531.1	-11.5
531.3	-40.17
531.499	8.98
531.699	-3.31
531.899	-5.36
532.099	4.88
532.298	-1.26
532.498	0.79
532.698	51.99
532.897	31.51
533.097	19.22
533.297	-66.8
533.496	-44.27
533.696	15.12
533.895	29.46
534.095	-56.56
534.294	29.46
534.494	-11.5
534.693	25.36
534.893	35.6
535.092	-27.88
535.292	62.23
535.491	21.27
535.69	-3.31
535.89	-19.69
536.089	56.08
536.288	13.08
536.488	29.46
536.687	-1.26
536.886	-40.17
537.085	-36.08
537.285	-62.7
537.484	23.32
537.683	-31.98
537.882	15.12
538.081	-27.88
538.28	4.88
538.479	-31.98
538.678	43.8
538.877	33.56
539.076	-7.4
539.275	-54.51
539.474	29.46
539.673	0.79
539.872	-38.12
540.071	-3.31
540.27	43.8
540.469	11.03
540.668	-21.74
540.867	25.36
541.065	-29.93
541.264	45.84
541.463	-17.64
541.662	-15.6
541.861	17.17
542.059	21.27
542.258	0.79
542.457	-36.08
542.655	8.98
542.854	-21.74
543.052	25.36
543.251	-11.5
543.45	-13.55
543.648	-56.56
543.847	-36.08
544.045	54.03
544.244	-72.94
544.442	-13.55
544.641	17.17
544.839	-21.74
545.037	37.65
545.236	-29.93
545.434	101.14
545.632	31.51
545.831	-5.36
546.029	-42.22
546.227	2.84
546.426	-25.84
546.624	15.12
546.822	39.7
547.02	-52.46
547.218	-5.36
547.417	-54.51
547.615	17.17
547.813	-23.79
548.011	74.51
548.209	6.93
548.407	31.51
548.605	4.88
548.803	33.56
549.001	-77.04
549.199	-19.69
549.397	-21.74
549.595	-50.41
549.793	-13.55
549.991	-31.98
550.189	76.56
550.387	-17.64
550.584	35.6
550.782	4.88
550.98	-7.4
551.178	-23.79
551.376	49.94
551.573	-44.27
551.771	-5.36
551.969	-77.04
552.166	41.75
552.364	17.17
552.562	-15.6
552.759	-5.36
552.957	8.98
553.154	21.27
553.352	-36.08
553.55	45.84
553.747	-40.17
553.945	-46.32
554.142	-3.31
554.339	-74.99
554.537	33.56
554.734	4.88
554.932	-1.26
555.129	54.03
555.326	4.88
555.524	13.08
555.721	-21.74
555.918	-29.93
556.116	39.7
556.313	6.93
556.51	66.32
556.707	35.6
556.904	41.75
557.102	-34.03
557.299	58.13
557.496	-77.04
557.693	19.22
557.89	33.56
558.087	43.8
558.284	-3.31
558.481	-68.84
558.678	-7.4
558.875	11.03
559.072	-15.6
559.269	33.56
559.466	74.51
559.663	-23.79
559.86	21.27
560.057	-56.56
560.254	21.27
560.45	-7.4
560.647	35.6
560.844	-40.17
561.041	-52.46
561.237	51.99
561.434	33.56
561.631	4.88
561.828	2.84
562.024	-11.5
562.221	-42.22
562.418	-44.27
562.614	-11.5
562.811	-31.98
563.007	-23.79
563.204	43.8
563.4	39.7
563.597	15.12
563.793	4.88
563.99	8.98
564.186	2.84
564.383	29.46
564.579	-11.5
564.775	-7.4
564.972	4.88
565.168	27.41
565.365	43.8
565.561	8.98
565.757	2.84
565.953	-36.08
566.15	-44.27
566.346	25.36
566.542	19.22
566.738	-40.17
566.934	-46.32
567.131	-56.56
567.327	29.46
567.523	-21.74
567.719	37.65
567.915	25.36
568.111	19.22
568.307	33.56
568.503	13.08
568.699	37.65
568.895	-44.27
569.091	-38.12
569.287	-3.31
569.483	-52.46
569.679	-27.88
569.875	-89.32
570.07	17.17
570.266	-11.5
570.462	-7.4
570.658	-56.56
570.854	-7.4
571.049	-23.79
571.245	-9.45
571.441	41.75
571.636	-40.17
571.832	-7.4
572.028	27.41
572.223	60.18
572.419	31.51
572.615	35.6
572.81	-21.74
573.006	35.6
573.201	-29.93
573.397	6.93
573.592	-23.79
573.788	58.13
573.983	117.52
574.179	68.37
574.374	-15.6
574.569	-19.69
574.765	-31.98
574.96	-23.79
575.156	-36.08
575.351	-7.4
575.546	-5.36
575.741	17.17
575.937	19.22
576.132	15.12
576.327	-7.4
576.522	8.98
576.718	-29.93
576.913	0.79
577.108	13.08
577.303	27.41
577.498	-13.55
577.693	37.65
577.888	2.84
578.083	-11.5
578.278	-87.27
578.473	41.75
578.668	-15.6
578.863	-46.32
579.058	-64.75
579.253	58.13
579.448	35.6
579.643	-48.36
579.838	-19.69
580.033	21.27
580.227	0.79
580.422	43.8
580.617	8.98
580.812	-23.79
581.006	39.7
581.201	-1.26
581.396	51.99
581.591	-19.69
581.785	-9.45
581.98	-29.93
582.175	33.56
582.369	-44.27
582.564	4.88
582.758	70.42
582.953	-36.08
583.147	-54.51
583.342	-25.84
583.536	8.98
583.731	2.84
583.925	13.08
584.12	-31.98
584.314	11.03
584.509	0.79
584.703	-40.17
584.897	29.46
585.092	0.79
585.286	-23.79
585.48	-21.74
585.674	-3.31
585.869	41.75
586.063	-36.08
586.257	-56.56
586.451	64.27
586.646	29.46
586.84	-13.55
587.034	27.41
587.228	-72.94
587.422	23.32
587.616	41.75
587.81	-66.8
588.004	4.88
588.198	-19.69
588.392	29.46
588.586	11.03
588.78	-13.55
588.974	8.98
589.168	13.08
589.362	-13.55
589.556	25.36
589.75	0.79
589.944	4.88
590.137	-44.27
590.331	41.75
590.525	-5.36
590.719	37.65
590.913	-62.7
591.106	-11.5
591.3	17.17
591.494	43.8
591.687	-44.27
591.881	19.22
592.075	-44.27
592.268	2.84
592.462	-85.23
592.655	-1.26
592.849	-11.5
593.043	4.88
593.236	-44.27
593.43	-21.74
593.623	-19.69
593.817	-15.6
594.01	-3.31
594.203	-9.45
594.397	-23.79
594.59	-5.36
594.784	25.36
594.977	60.18
595.17	-64.75
595.364	-17.64
595.557	-42.22
595.75	45.84
595.943	-13.55
596.137	82.71
596.33	-23.79
596.523	-21.74
596.716	21.27
596.909	13.08
597.102	97.04
597.296	41.75
597.489	-40.17
597.682	4.88
597.875	15.12
598.068	-1.26
598.261	29.46
598.454	4.88
598.647	4.88
598.84	19.22
599.033	17.17
599.226	74.51
599.419	39.7
599.611	29.46
599.804	2.84
599.997	-19.69
600.19	4.88
600.383	-29.93
600.576	-7.4
600.768	-21.74
600.961	41.75
601.154	23.32
601.347	-5.36
601.539	17.17
601.732	49.94
601.925	-7.4
602.117	-1.26
602.31	-34.03
602.502	8.98
602.695	-54.51
602.888	125.71
603.08	51.99
603.273	-11.5
603.465	21.27
603.658	6.93
603.85	58.13
604.043	70.42
604.235	0.79
604.427	27.41
604.62	35.6
604.812	37.65
605.004	-17.64
605.197	21.27
605.389	21.27
605.581	-7.4
605.774	54.03
605.966	80.66
606.158	2.84
606.35	-7.4
606.543	-31.98
606.735	-15.6
606.927	-19.69
607.119	8.98
607.311	-77.04
607.503	4.88
607.695	-31.98
607.887	99.09
608.079	0.79
608.271	-7.4
608.463	-11.5
608.655	-21.74
608.847	49.94
609.039	-11.5
609.231	-7.4
609.423	-15.6
609.615	11.03
609.807	27.41
609.999	37.65
610.191	4.88
610.382	25.36
610.574	8.98
610.766	66.32
610.958	2.84
611.15	25.36
611.341	4.88
611.533	-3.31
611.725	25.36
611.916	-11.5
612.108	-34.03
612.3	6.93
612.491	49.94
612.683	-15.6
612.874	-27.88
613.066	-15.6
613.257	-3.31
613.449	-66.8
613.64	117.52
613.832	-23.79
614.023	-13.55
614.215	-3.31
614.406	-89.32
614.598	-21.74
614.789	-9.45
614.98	62.23
615.172	-11.5
615.363	-21.74
615.554	0.79
615.746	-15.6
615.937	74.51
616.128	37.65
616.319	8.98
616.511	17.17
616.702	37.65
616.893	25.36
617.084	47.89
617.275	-50.41
617.466	-38.12
617.658	-13.55
617.849	-48.36
618.04	-3.31
618.231	4.88
618.422	-15.6
618.613	11.03
618.804	-15.6
618.995	58.13
619.186	-5.36
619.377	13.08
619.568	-3.31
619.758	-7.4
619.949	-15.6
620.14	-48.36
620.331	-7.4
620.522	-9.45
620.713	-48.36
620.903	74.51
621.094	-27.88
621.285	4.88
621.476	-77.04
621.666	-29.93
621.857	-23.79
622.048	11.03
622.238	-52.46
622.429	-40.17
622.62	-48.36
622.81	35.6
623.001	-21.74
623.191	13.08
623.382	-3.31
623.572	35.6
623.763	-56.56
623.953	-48.36
624.144	-21.74
624.334	-68.84
624.525	0.79
624.715	11.03
624.905	41.75
625.096	-34.03
625.286	-44.27
625.477	49.94
625.667	-27.88
625.857	21.27
626.047	-15.6
626.238	-23.79
626.428	-81.13
626.618	58.13
626.808	-3.31
626.999	21.27
627.189	41.75
627.379	43.8
627.569	-5.36
627.759	-38.12
627.949	-27.88
628.139	-15.6
628.329	76.56
628.519	13.08
628.709	-7.4
628.899	0.79
629.089	-23.79
629.279	-21.74
629.469	-13.55
629.659	11.03
629.849	-9.45
630.039	-31.98
630.229	11.03
630.419	2.84
630.609	-77.04
630.798	15.12
630.988	-40.17
631.178	-25.84
631.368	43.8
631.557	17.17
631.747	-3.31
631.937	35.6
632.127	-40.17
632.316	6.93
632.506	-7.4
632.696	-7.4
632.885	4.88
633.075	-27.88
633.264	-48.36
633.454	-7.4
633.643	0.79
633.833	-1.26
634.022	43.8
634.212	-95.47
634.401	-11.5
634.591	-21.74
634.78	-15.6
634.97	4.88
635.159	-1.26
635.348	37.65
635.538	-15.6
635.727	0.79
635.916	19.22
636.106	-3.31
636.295	13.08
636.484	39.7
636.674	-13.55
636.863	8.98
637.052	0.79
637.241	4.88
637.43	-66.8
637.619	-23.79
637.809	-48.36
637.998	49.94
638.187	-29.93
638.376	51.99
638.565	-40.17
638.754	27.41
638.943	27.41
639.132	-31.98
639.321	-21.74
639.51	-5.36
639.699	-44.27
639.888	33.56
640.077	-15.6
640.266	-19.69
640.455	8.98
640.643	58.13
640.832	-7.4
641.021	-23.79
641.21	17.17
641.399	-21.74
641.587	25.36
641.776	45.84
641.965	-56.56
642.154	-50.41
642.342	27.41
642.531	-60.65
642.72	41.75
642.908	-36.08
643.097	33.56
643.286	29.46
643.474	-25.84
643.663	21.27
643.851	-15.6
644.04	27.41
644.228	-36.08
644.417	43.8
644.605	-9.45
644.794	-1.26
644.982	0.79
645.171	-11.5
645.359	33.56
645.547	-11.5
645.736	31.51
645.924	-31.98
646.112	-5.36
646.301	-36.08
646.489	-38.12
646.677	25.36
646.866	25.36
647.054	-23.79
647.242	-60.65
647.43	-27.88
647.618	2.84
647.807	17.17
647.995	-40.17
648.183	21.27
648.371	45.84
648.559	17.17
648.747	107.28
648.935	58.13
649.123	29.46
649.311	45.84
649.499	-23.79
649.687	8.98
649.875	-38.12
650.063	37.65
650.251	13.08
650.439	-44.27
650.627	43.8
650.815	-36.08
651.003	-54.51
651.191	-7.4
651.378	-21.74
651.566	-64.75
651.754	23.32
651.942	29.46
652.13	13.08
652.317	0.79
652.505	4.88
652.693	-81.13
652.88	2.84
653.068	-9.45
653.256	-25.84
653.443	60.18
653.631	8.98
653.819	49.94
654.006	37.65
654.194	-11.5
654.381	-13.55
654.569	25.36
654.756	-15.6
654.944	19.22
655.131	25.36
655.319	4.88
655.506	37.65
655.693	-19.69
655.881	2.84
656.068	35.6
656.256	-3.31
656.443	17.17
656.63	25.36
656.818	51.99
657.005	74.51
657.192	17.17
657.379	0.79
657.567	21.27
657.754	-40.17
657.941	-31.98
658.128	17.17
658.315	-13.55
658.502	-5.36
658.69	23.32
658.877	35.6
659.064	41.75
659.251	25.36
659.438	-23.79
659.625	-5.36
659.812	-31.98
659.999	4.88
660.186	0.79
660.373	-93.42
660.56	45.84
660.747	-89.32
660.934	45.84
661.121	-42.22
661.308	-7.4
661.494	-44.27
661.681	19.22
661.868	-23.79
662.055	-68.84
662.242	17.17
662.428	29.46
662.615	-38.12
662.802	60.18
662.989	-29.93
663.175	-111.85
663.362	2.84
663.549	2.84
663.735	-21.74
663.922	90.9
664.109	-1.26
664.295	-31.98
664.482	25.36
664.668	-11.5
664.855	-13.55
665.041	-21.74
665.228	-40.17
665.414	-48.36
665.601	-15.6
665.787	58.13
665.974	13.08
666.16	76.56
666.347	-27.88
666.533	21.27
666.719	-13.55
666.906	25.36
667.092	21.27
667.278	-15.6
667.465	-1.26
667.651	25.36
667.837	-15.6
668.023	-31.98
668.21	-31.98
668.396	33.56
668.582	-27.88
668.768	-11.5
668.954	49.94
669.14	27.41
669.327	0.79
669.513	-48.36
669.699	15.12
669.885	0.79
670.071	-27.88
670.257	23.32
670.443	-3.31
670.629	-21.74
670.815	74.51
671.001	-21.74
671.187	-9.45
671.373	-5.36
671.559	-60.65
671.744	-85.23
671.93	21.27
672.116	-11.5
672.302	-27.88
672.488	54.03
672.674	25.36
672.859	45.84
673.045	-77.04
673.231	25.36
673.417	-31.98
673.602	2.84
673.788	2.84
673.974	-7.4
674.159	2.84
674.345	13.08
674.531	54.03
674.716	8.98
674.902	-36.08
675.087	-23.79
675.273	97.04
675.459	-15.6
675.644	33.56
675.83	-31.98
676.015	33.56
676.2	-3.31
676.386	-40.17
676.571	51.99
676.757	-38.12
676.942	27.41
677.128	17.17
677.313	-23.79
677.498	8.98
677.684	-7.4
677.869	35.6
678.054	-48.36
678.24	66.32
678.425	-11.5
678.61	29.46
678.795	-38.12
678.98	-7.4
679.166	41.75
679.351	-36.08
679.536	2.84
679.721	19.22
679.906	-23.79
680.091	-7.4
680.276	29.46
680.461	66.32
680.647	19.22
680.832	-64.75
681.017	0.79
681.202	2.84
681.387	23.32
681.572	49.94
681.756	-95.47
681.941	25.36
682.126	-3.31
682.311	0.79
682.496	-34.03
682.681	13.08
682.866	-23.79
683.051	72.47
683.235	21.27
683.42	-70.89
683.605	-44.27
683.79	25.36
683.974	2.84
684.159	4.88
684.344	-46.32
684.529	82.71
684.713	33.56
684.898	-7.4
685.083	11.03
685.267	-5.36
685.452	-40.17
685.636	-23.79
685.821	-7.4
686.005	-29.93
686.19	-11.5
686.375	-13.55
686.559	8.98
686.744	-42.22
686.928	-21.74
687.112	0.79
687.297	-31.98
687.481	-62.7
687.666	33.56
687.85	-89.32
688.034	33.56
688.219	0.79
688.403	0.79
688.587	-64.75
688.772	-60.65
688.956	-3.31
689.14	-23.79
689.324	33.56
689.509	8.98
689.693	-48.36
689.877	-38.12
690.061	25.36
690.245	-19.69
690.43	-42.22
690.614	-54.51
690.798	-3.31
690.982	11.03
691.166	58.13
691.35	-23.79
691.534	-21.74
691.718	17.17
691.902	41.75
692.086	-48.36
692.27	-52.46
692.454	-21.74
692.638	-68.84
692.822	68.37
693.006	-11.5
693.19	62.23
693.373	-64.75
693.557	-3.31
693.741	8.98
693.925	-23.79
694.109	-3.31
694.293	-25.84
694.476	6.93
694.66	49.94
694.844	43.8
695.027	0.79
695.211	-79.08
695.395	-5.36
695.578	-15.6
695.762	0.79
695.946	105.23
696.129	23.32
696.313	8.98
696.497	39.7
696.68	-1.26
696.864	94.99
697.047	70.42
697.231	-11.5
697.414	33.56
697.598	-15.6
697.781	-23.79
697.965	-1.26
698.148	33.56
698.331	-40.17
698.515	17.17
698.698	-23.79
698.881	41.75
699.065	17.17
699.248	54.03
699.431	2.84
699.615	8.98
699.798	-56.56
699.981	-58.6
700.165	37.65
700.348	2.84
700.531	8.98
700.714	-25.84
700.897	-13.55
701.08	-54.51
701.264	-15.6
701.447	-31.98
701.63	-27.88
701.813	107.28
701.996	4.88
702.179	90.9
702.362	45.84
702.545	-23.79
702.728	11.03
702.911	-40.17
703.094	6.93
703.277	-15.6
703.46	4.88
703.643	49.94
703.826	8.98
704.009	-15.6
704.191	-97.51
704.374	-21.74
704.557	-15.6
704.74	11.03
704.923	-7.4
705.106	-15.6
705.288	45.84
705.471	-13.55
705.654	2.84
705.837	2.84
706.019	-31.98
706.202	-5.36
706.385	11.03
706.567	49.94
706.75	25.36
706.932	-40.17
707.115	-66.8
707.298	35.6
707.48	-23.79
707.663	72.47
707.845	-11.5
708.028	-5.36
708.21	-11.5
708.393	82.71
708.575	-21.74
708.758	-15.6
708.94	-19.69
709.123	-48.36
709.305	92.95
709.487	2.84
709.67	21.27
709.852	74.51
710.034	-48.36
710.217	-44.27
710.399	0.79
710.581	-66.8
710.764	13.08
710.946	51.99
711.128	-15.6
711.31	4.88
711.492	-21.74
711.675	6.93
711.857	66.32
712.039	41.75
712.221	-31.98
712.403	-31.98
712.585	-40.17
712.767	-36.08
712.949	-40.17
713.131	17.17
713.314	-3.31
713.496	-19.69
713.678	-56.56
713.86	-44.27
714.041	-27.88
714.223	-64.75
714.405	0.79
714.587	19.22
714.769	-46.32
714.951	-15.6
715.133	-7.4
715.315	39.7
715.497	27.41
715.678	-38.12
715.86	51.99
716.042	8.98
716.224	-17.64
716.406	-5.36
716.587	-7.4
716.769	41.75
716.951	-9.45
717.132	-44.27
717.314	21.27
717.496	31.51
717.677	33.56
717.859	-7.4
718.041	31.51
718.222	0.79
718.404	35.6
718.585	8.98
718.767	-31.98
718.948	2.84
719.13	-11.5
719.311	25.36
719.493	-23.79
719.674	43.8
719.856	31.51
720.037	-15.6
720.219	0.79
720.4	8.98
720.581	-21.74
720.763	-34.03
720.944	-19.69
721.125	49.94
721.307	-3.31
721.488	8.98
721.669	-5.36
721.85	-36.08
722.032	-40.17
722.213	-5.36
722.394	43.8
722.575	-54.51
722.756	-44.27
722.938	-34.03
723.119	35.6
723.3	-9.45
723.481	-48.36
723.662	25.36
723.843	23.32
724.024	2.84
724.205	74.51
724.386	-48.36
724.567	-27.88
724.748	-15.6
724.929	-15.6
725.11	8.98
725.291	80.66
725.472	-7.4
725.653	-11.5
725.834	27.41
726.015	-21.74
726.196	-38.12
726.377	17.17
726.557	54.03
726.738	-21.74
726.919	4.88
727.1	-15.6
727.281	-36.08
727.461	37.65
727.642	19.22
727.823	45.84
728.004	15.12
728.184	11.03
728.365	-7.4
728.546	21.27
728.726	47.89
728.907	84.75
729.087	-19.69
729.268	8.98
729.449	-52.46
729.629	17.17
729.81	27.41
729.99	29.46
730.171	13.08
730.351	-19.69
730.532	-19.69
730.712	23.32
730.893	119.57
731.073	-27.88
731.253	25.36
731.434	41.75
731.614	11.03
731.795	-101.61
731.975	-34.03
732.155	-13.55
732.336	-5.36
732.516	13.08
732.696	-29.93
732.876	-42.22
733.057	-15.6
733.237	19.22
733.417	43.8
733.597	4.88
733.778	-23.79
733.958	0.79
734.138	0.79
734.318	-56.56
734.498	8.98
734.678	-27.88
734.858	6.93
735.038	4.88
735.218	-27.88
735.398	35.6
735.579	-44.27
735.759	15.12
735.939	-81.13
736.119	54.03
736.298	-11.5
736.478	25.36
736.658	41.75
736.838	-7.4
737.018	11.03
737.198	8.98
737.378	-72.94
737.558	37.65
737.738	68.37
737.917	29.46
738.097	17.17
738.277	29.46
738.457	8.98
738.637	-11.5
738.816	-13.55
738.996	-38.12
739.176	-13.55
739.355	-36.08
739.535	-42.22
739.715	-56.56
739.894	-58.6
740.074	0.79
740.254	-15.6
740.433	-27.88
740.613	-81.13
740.792	-3.31
740.972	-23.79
741.151	33.56
741.331	-7.4
741.51	-15.6
741.69	21.27
741.869	39.7
742.049	-17.64
742.228	23.32
742.408	-23.79
742.587	17.17
742.766	-5.36
742.946	8.98
743.125	-1.26
743.305	41.75
743.484	17.17
743.663	-25.84
743.842	-7.4
744.022	-23.79
744.201	-52.46
744.38	33.56
744.56	2.84
744.739	33.56
744.918	-31.98
745.097	4.88
745.276	-58.6
745.455	49.94
745.635	33.56
745.814	4.88
745.993	37.65
746.172	-11.5
746.351	-23.79
746.53	25.36
746.709	-31.98
746.888	-52.46
747.067	-5.36
747.246	17.17
747.425	43.8
747.604	2.84
747.783	60.18
747.962	-56.56
748.141	-40.17
748.32	45.84
748.499	43.8
748.677	-3.31
748.856	-38.12
749.035	25.36
749.214	43.8
749.393	74.51
749.572	78.61
749.75	78.61
749.929	6.93
750.108	21.27
750.287	33.56
750.465	76.56
750.644	13.08
750.823	58.13
751.001	54.03
751.18	-23.79
751.359	-52.46
751.537	-11.5
751.716	29.46
751.894	-19.69
752.073	-54.51
752.251	-56.56
752.43	-19.69
752.609	-7.4
752.787	-7.4
752.966	-64.75
753.144	6.93
753.322	0.79
753.501	-44.27
753.679	11.03
753.858	-17.64
754.036	-77.04
754.215	4.88
754.393	-48.36
754.571	0.79
754.75	-7.4
754.928	37.65
755.106	2.84
755.284	-7.4
755.463	45.84
755.641	4.88
755.819	13.08
755.997	-42.22
756.176	-21.74
756.354	39.7
756.532	-21.74
756.71	-11.5
756.888	8.98
757.066	11.03
757.245	33.56
757.423	-44.27
757.601	25.36
757.779	-15.6
757.957	17.17
758.135	-1.26
758.313	17.17
758.491	41.75
758.669	11.03
758.847	0.79
759.025	-29.93
759.203	-7.4
759.381	-23.79
759.559	49.94
759.737	-13.55
759.915	-27.88
760.092	-48.36
760.27	-64.75
760.448	-3.31
760.626	-60.65
760.804	-11.5
760.981	-5.36
761.159	17.17
761.337	-9.45
761.515	35.6
761.692	8.98
761.87	-44.27
762.048	0.79
762.226	-29.93
762.403	-3.31
762.581	-13.55
762.759	21.27
762.936	-15.6
763.114	49.94
763.291	-38.12
763.469	-105.71
763.647	-31.98
763.824	-7.4
764.002	21.27
764.179	17.17
764.357	-19.69
764.534	45.84
764.712	-3.31
764.889	70.42
765.066	-15.6
765.244	-70.89
765.421	-7.4
765.599	-15.6
765.776	11.03
765.953	-29.93
766.131	-25.84
766.308	49.94
766.485	19.22
766.663	19.22
766.84	29.46
767.017	-15.6
767.194	-17.64
767.372	-19.69
767.549	33.56
767.726	17.17
767.903	37.65
768.081	-40.17
768.258	8.98
768.435	-46.32
768.612	-23.79
768.789	-29.93
768.966	37.65
769.143	-27.88
769.32	13.08
769.497	49.94
769.674	58.13
769.851	2.84
770.028	-1.26
770.205	-15.6
770.382	17.17
770.559	39.7
770.736	-13.55
770.913	33.56
771.09	-7.4
771.267	4.88
771.444	-19.69
771.621	31.51
771.798	-48.36
771.975	33.56
772.151	17.17
772.328	41.75
772.505	35.6
772.682	19.22
772.859	-19.69
773.035	0.79
773.212	-89.32
773.389	21.27
773.565	-38.12
773.742	47.89
773.919	13.08
774.096	8.98
774.272	-7.4
774.449	-74.99
774.625	90.9
774.802	-11.5
774.979	-23.79
775.155	-50.41
775.332	4.88
775.508	2.84
775.685	41.75
775.861	-62.7
776.038	29.46
776.214	-46.32
776.391	17.17
776.567	54.03
776.744	8.98
776.92	8.98
777.096	37.65
777.273	49.94
777.449	-11.5
777.626	-29.93
777.802	15.12
777.978	-29.93
778.155	0.79
778.331	-79.08
778.507	33.56
778.683	-64.75
778.86	8.98
779.036	-56.56
779.212	54.03
779.388	8.98
779.565	49.94
779.741	-19.69
779.917	-60.65
780.093	19.22
780.269	33.56
780.445	35.6
780.621	107.28
780.797	-3.31
780.974	-44.27
781.15	19.22
781.326	-44.27
781.502	11.03
781.678	33.56
781.854	-23.79
782.03	-5.36
782.206	19.22
782.382	11.03
782.558	-52.46
782.733	19.22
782.909	17.17
783.085	70.42
783.261	-44.27
783.437	-60.65
783.613	-15.6
783.789	4.88
783.965	17.17
784.14	-15.6
784.316	25.36
784.492	-31.98
784.668	-3.31
784.843	62.23
785.019	-5.36
785.195	-64.75
785.371	-31.98
785.546	33.56
785.722	13.08
785.898	-56.56
786.073	35.6
786.249	0.79
786.424	17.17
786.6	41.75
786.776	-23.79
786.951	-7.4
787.127	17.17
787.302	6.93
787.478	-15.6
787.653	-40.17
787.829	-85.23
788.004	-9.45
788.18	0.79
788.355	68.37
788.531	-34.03
788.706	17.17
788.881	-3.31
789.057	8.98
789.232	-13.55
789.408	35.6
789.583	-72.94
789.758	62.23
789.934	66.32
790.109	-27.88
790.284	-27.88
790.459	11.03
790.635	33.56
790.81	13.08
790.985	-5.36
791.16	8.98
791.336	35.6
791.511	-5.36
791.686	-11.5
791.861	33.56
792.036	45.84
792.211	-5.36
792.387	-52.46
792.562	49.94
792.737	-52.46
792.912	-38.12
793.087	-29.93
793.262	-15.6
793.437	-3.31
793.612	4.88
793.787	-5.36
793.962	-15.6
794.137	-56.56
794.312	13.08
794.487	35.6
794.662	51.99
794.837	4.88
795.011	2.84
795.186	21.27
795.361	0.79
795.536	-7.4
795.711	-9.45
795.886	-54.51
796.06	2.84
796.235	11.03
796.41	23.32
796.585	13.08
796.76	17.17
796.934	2.84
797.109	-31.98
797.284	-9.45
797.458	49.94
797.633	-70.89
797.808	33.56
797.982	-17.64
798.157	4.88
798.332	4.88
798.506	-34.03
798.681	-77.04
798.855	-5.36
799.03	-5.36
799.204	70.42
799.379	35.6
799.553	49.94
799.728	-13.55
799.902	-40.17
800.077	-17.64
800.251	49.94
800.426	-13.55
800.6	25.36
800.775	-11.5
800.949	-19.69
801.123	45.84
801.298	-40.17
801.472	-70.89
801.647	31.51
801.821	49.94
801.995	-7.4
802.169	-56.56
802.344	99.09
802.518	60.18
802.692	11.03
802.867	-15.6
803.041	33.56
803.215	-15.6
803.389	13.08
803.563	-7.4
803.737	99.09
803.912	19.22
804.086	15.12
804.26	25.36
804.434	35.6
804.608	27.41
804.782	-62.7
804.956	-15.6
805.13	-5.36
805.304	-21.74
805.478	25.36
805.652	-97.51
805.826	-36.08
806	-7.4
806.174	58.13
806.348	8.98
806.522	17.17
806.696	66.32
806.87	-3.31
807.044	-9.45
807.218	23.32
807.392	-7.4
807.566	27.41
807.739	37.65
807.913	-5.36
808.087	-13.55
808.261	-89.32
808.435	97.04
808.608	-7.4
808.782	43.8
808.956	6.93
809.13	-74.99
809.303	41.75
809.477	-64.75
809.651	29.46
809.824	11.03
809.998	-60.65
810.172	-64.75
810.345	31.51
810.519	-9.45
810.692	-115.95
810.866	41.75
811.04	-21.74
811.213	-52.46
811.387	78.61
811.56	-40.17
811.734	-17.64
811.907	29.46
812.081	17.17
812.254	17.17
812.428	-21.74
812.601	-5.36
812.774	-56.56
812.948	-1.26
813.121	-58.6
813.295	-52.46
813.468	29.46
813.641	-74.99
813.815	0.79
813.988	-48.36
814.161	13.08
814.335	35.6
814.508	31.51
814.681	23.32
814.854	8.98
815.028	-44.27
815.201	62.23
815.374	-36.08
815.547	-5.36
815.72	17.17
815.894	-56.56
816.067	-70.89
816.24	-62.7
816.413	-50.41
816.586	0.79
816.759	17.17
816.932	17.17
817.105	-11.5
817.278	-44.27
817.452	25.36
817.625	-15.6
817.798	-48.36
817.971	8.98
818.144	-19.69
818.317	-27.88
818.49	2.84
818.662	90.9
818.835	43.8
819.008	-3.31
819.181	-52.46
819.354	19.22
819.527	21.27
819.7	51.99
819.873	43.8
820.046	41.75
820.218	2.84
820.391	-44.27
820.564	-27.88
820.737	-3.31
820.909	82.71
821.082	45.84
821.255	0.79
821.428	-15.6
821.6	13.08
821.773	23.32
821.946	-17.64
822.118	-13.55
822.291	11.03
822.464	13.08
822.636	-44.27
822.809	29.46
822.982	33.56
823.154	6.93
823.327	-54.51
823.499	11.03
823.672	-7.4
823.844	-5.36
824.017	-38.12
824.189	58.13
824.362	-19.69
824.534	-46.32
824.707	21.27
824.879	-3.31
825.052	8.98
825.224	0.79
825.396	49.94
825.569	-7.4
825.741	-27.88
825.914	-48.36
826.086	-36.08
826.258	-19.69
826.431	-25.84
826.603	74.51
826.775	-60.65
826.947	-7.4
827.12	-70.89
827.292	51.99
827.464	33.56
827.636	15.12
827.809	27.41
827.981	-11.5
828.153	21.27
828.325	2.84
828.497	15.12
828.669	-77.04
828.842	-3.31
829.014	17.17
829.186	-85.23
829.358	78.61
829.53	47.89
829.702	25.36
829.874	0.79
830.046	49.94
830.218	35.6
830.39	-13.55
830.562	2.84
830.734	19.22
830.906	70.42
831.078	-31.98
831.25	27.41
831.422	25.36
831.594	23.32
831.766	29.46
831.937	19.22
832.109	-52.46
832.281	11.03
832.453	74.51
832.625	33.56
832.797	-7.4
832.968	-36.08
833.14	11.03
833.312	-7.4
833.484	37.65
833.655	-23.79
833.827	-52.46
833.999	-5.36
834.171	-21.74
834.342	-7.4
834.514	-11.5
834.686	11.03
834.857	-44.27
835.029	27.41
835.2	-48.36
835.372	-7.4
835.544	-11.5
835.715	-58.6
835.887	29.46
836.058	-27.88
836.23	45.84
836.401	-13.55
836.573	-40.17
836.744	-13.55
836.916	-7.4
837.087	17.17
837.259	11.03
837.43	-9.45
837.602	29.46
837.773	11.03
837.945	45.84
838.116	-58.6
838.287	-52.46
838.459	-23.79
838.63	4.88
838.801	58.13
838.973	-7.4
839.144	2.84
839.315	76.56
839.487	-40.17
839.658	-15.6
839.829	-54.51
840	0.79
840.172	4.88
840.343	4.88
840.514	-81.13
840.685	-15.6
840.856	-23.79
841.027	4.88
841.199	-89.32
841.37	-25.84
841.541	-29.93
841.712	-5.36
841.883	66.32
842.054	-7.4
842.225	-36.08
842.396	-107.75
842.567	11.03
842.738	33.56
842.909	-97.51
843.08	4.88
843.251	4.88
843.422	17.17
843.593	29.46
843.764	37.65
843.935	0.79
844.106	8.98
844.277	25.36
844.448	21.27
844.619	-83.18
844.79	2.84
844.96	43.8
845.131	-3.31
845.302	49.94
845.473	-7.4
845.644	51.99
845.814	37.65
845.985	-21.74
846.156	33.56
846.327	-60.65
846.497	-89.32
846.668	-31.98
846.839	13.08
847.01	11.03
847.18	-21.74
847.351	8.98
847.522	-29.93
847.692	-7.4
847.863	35.6
848.033	-29.93
848.204	4.88
848.375	6.93
848.545	37.65
848.716	0.79
848.886	-38.12
849.057	-31.98
849.227	27.41
849.398	74.51
849.568	17.17
849.739	58.13
849.909	-56.56
850.08	-64.75
850.25	-15.6
850.421	-36.08
850.591	4.88
850.761	-46.32
850.932	25.36
851.102	6.93
851.272	-72.94
851.443	13.08
851.613	49.94
851.783	-31.98
851.954	19.22
852.124	-3.31
852.294	13.08
852.465	-42.22
852.635	-29.93
852.805	-7.4
852.975	25.36
853.145	-3.31
853.316	72.47
853.486	-5.36
853.656	56.08
853.826	-40.17
853.996	-38.12
854.166	-79.08
854.337	-15.6
854.507	0.79
854.677	-31.98
854.847	-19.69
855.017	-27.88
855.187	-70.89
855.357	17.17
855.527	-25.84
855.697	17.17
855.867	15.12
856.037	41.75
856.207	-48.36
856.377	-19.69
856.547	-42.22
856.717	-56.56
856.887	33.56
857.057	-42.22
857.227	-31.98
857.397	21.27
857.566	-11.5
857.736	-77.04
857.906	17.17
858.076	35.6
858.246	0.79
858.416	-19.69
858.585	8.98
858.755	17.17
858.925	-58.6
859.095	-21.74
859.264	-23.79
859.434	23.32
859.604	19.22
859.774	-19.69
859.943	-11.5
860.113	21.27
860.283	27.41
860.452	-23.79
860.622	0.79
860.791	-19.69
860.961	25.36
861.131	31.51
861.3	-7.4
861.47	-27.88
861.639	-13.55
861.809	-23.79
861.978	33.56
862.148	-15.6
862.318	-48.36
862.487	17.17
862.657	0.79
862.826	21.27
862.995	-11.5
863.165	41.75
863.334	-1.26
863.504	8.98
863.673	-48.36
863.843	-38.12
864.012	76.56
864.181	13.08
864.351	8.98
864.52	-11.5
864.689	-15.6
864.859	-46.32
865.028	54.03
865.197	4.88
865.366	-54.51
865.536	-27.88
865.705	-40.17
865.874	-7.4
866.043	19.22
866.213	31.51
866.382	-52.46
866.551	33.56
866.72	-72.94
866.889	33.56
867.059	37.65
867.228	76.56
867.397	0.79
867.566	-21.74
867.735	-13.55
867.904	4.88
868.073	-48.36
868.242	-64.75
868.411	-77.04
868.58	49.94
868.749	-40.17
868.918	51.99
869.087	-27.88
869.256	-31.98
869.425	-23.79
869.594	-27.88
869.763	-5.36
869.932	19.22
870.101	-23.79
870.27	56.08
870.439	45.84
870.608	58.13
870.777	35.6
870.945	-7.4
871.114	25.36
871.283	74.51
871.452	-27.88
871.621	-44.27
871.789	11.03
871.958	33.56
872.127	6.93
872.296	35.6
872.464	8.98
872.633	29.46
872.802	25.36
872.971	54.03
873.139	35.6
873.308	41.75
873.477	-38.12
873.645	35.6
873.814	-48.36
873.983	-27.88
874.151	-11.5
874.32	11.03
874.488	58.13
874.657	-7.4
874.826	13.08
874.994	-5.36
875.163	-62.7
875.331	17.17
875.5	8.98
875.668	-17.64
875.837	-27.88
876.005	17.17
876.174	35.6
876.342	-29.93
876.51	-40.17
876.679	-3.31
876.847	-11.5
877.016	8.98
877.184	-48.36
877.352	58.13
877.521	-11.5
877.689	-44.27
877.857	-52.46
878.026	-31.98
878.194	-23.79
878.362	-3.31
878.531	8.98
878.699	76.56
878.867	8.98
879.036	33.56
879.204	-31.98
879.372	70.42
879.54	8.98
879.708	2.84
879.877	78.61
880.045	90.9
880.213	-31.98
880.381	-62.7
880.549	82.71
880.717	-36.08
880.885	-23.79
881.054	17.17
881.222	-21.74
881.39	-13.55
881.558	17.17
881.726	43.8
881.894	-109.8
882.062	-27.88
882.23	-64.75
882.398	-15.6
882.566	13.08
882.734	66.32
882.902	-21.74
883.07	-50.41
883.238	-40.17
883.406	33.56
883.574	-27.88
883.741	17.17
883.909	-3.31
884.077	51.99
884.245	17.17
884.413	-44.27
884.581	-21.74
884.749	35.6
884.916	-25.84
885.084	-19.69
885.252	-17.64
885.42	17.17
885.587	-5.36
885.755	-11.5
885.923	51.99
886.091	-15.6
886.258	-13.55
886.426	99.09
886.594	-52.46
886.761	39.7
886.929	47.89
887.097	49.94
887.264	-60.65
887.432	-50.41
887.6	17.17
887.767	-29.93
887.935	-29.93
888.102	56.08
888.27	-3.31
888.438	17.17
888.605	19.22
888.773	-13.55
888.94	4.88
889.108	33.56
889.275	-62.7
889.443	8.98
889.61	51.99
889.778	-52.46
889.945	21.27
890.112	0.79
890.28	13.08
890.447	15.12
890.615	33.56
890.782	-52.46
890.949	-36.08
891.117	27.41
891.284	-40.17
891.452	15.12
891.619	58.13
891.786	19.22
891.953	8.98
892.121	11.03
892.288	-48.36
892.455	-11.5
892.623	-1.26
892.79	25.36
892.957	17.17
893.124	29.46
893.291	13.08
893.459	58.13
893.626	-7.4
893.793	8.98
893.96	35.6
894.127	29.46
894.294	8.98
894.461	-64.75
894.629	-85.23
894.796	-60.65
894.963	35.6
895.13	-7.4
895.297	43.8
895.464	49.94
895.631	-34.03
895.798	-27.88
895.965	15.12
896.132	13.08
896.299	13.08
896.466	-5.36
896.633	-19.69
896.8	41.75
896.967	-52.46
897.134	-29.93
897.301	-15.6
897.467	-11.5
897.634	29.46
897.801	8.98
897.968	4.88
898.135	45.84
898.302	0.79
898.469	54.03
898.635	29.46
898.802	-15.6
898.969	-40.17
899.136	49.94
899.303	62.23
