Data from dark_USB4E013581_00013.txt Node
Date: Wed May 08 15:05:46 EDT 2019
User: dh1006
Spectrometer: USB4E01358
Autoset integration time: false
Trigger mode: 4
Integration Time (sec): 2.925000E-2
Scans to average: 1
Electric dark correction enabled: true
Nonlinearity correction enabled: false
Boxcar width: 0
Stray light correction enabled: false
XAxis mode: Wavelengths
Stop averaging: false
Number of Pixels in Spectrum: 3648
>>>>>Begin Spectral Data<<<<<
176.727	-44.27
176.966	-44.27
177.205	-44.27
177.444	-93.42
177.683	-9.45
177.922	105.23
178.161	15.12
178.4	68.37
178.638	29.46
178.877	0.79
179.116	-17.64
179.355	27.41
179.593	6.93
179.832	86.8
180.071	76.56
180.309	-58.6
180.548	21.27
180.786	56.08
181.025	-25.84
181.263	-23.79
181.502	88.85
181.74	-3.31
181.979	4.88
182.217	-3.31
182.456	66.32
182.694	13.08
182.932	29.46
183.17	-15.6
183.409	37.65
183.647	35.6
183.885	31.51
184.123	-50.41
184.361	68.37
184.6	60.18
184.838	-9.45
185.076	27.41
185.314	90.9
185.552	-3.31
185.79	86.8
186.028	-40.17
186.266	23.32
186.503	-50.41
186.741	-19.69
186.979	41.75
187.217	-17.64
187.455	-11.5
187.693	13.08
187.93	37.65
188.168	45.84
188.406	-9.45
188.643	47.89
188.881	-1.26
189.119	15.12
189.356	97.04
189.594	6.93
189.831	62.23
190.069	4.88
190.306	27.41
190.543	45.84
190.781	47.89
191.018	62.23
191.256	70.42
191.493	39.7
191.73	39.7
191.967	13.08
192.205	21.27
192.442	-15.6
192.679	21.27
192.916	33.56
193.153	94.99
193.39	41.75
193.628	45.84
193.865	29.46
194.102	23.32
194.339	6.93
194.576	49.94
194.813	62.23
195.049	-15.6
195.286	0.79
195.523	-25.84
195.76	92.95
195.997	29.46
196.234	29.46
196.47	54.03
196.707	4.88
196.944	0.79
197.18	37.65
197.417	33.56
197.654	64.27
197.89	25.36
198.127	31.51
198.363	58.13
198.6	-23.79
198.836	-19.69
199.073	43.8
199.309	15.12
199.546	8.98
199.782	-11.5
200.018	70.42
200.255	-58.6
200.491	39.7
200.727	45.84
200.963	49.94
201.199	49.94
201.436	49.94
201.672	-3.31
201.908	21.27
202.144	82.71
202.38	-17.64
202.616	15.12
202.852	78.61
203.088	27.41
203.324	37.65
203.56	-19.69
203.796	115.47
204.032	39.7
204.268	-52.46
204.503	0.79
204.739	86.8
204.975	62.23
205.211	37.65
205.446	-7.4
205.682	-27.88
205.918	37.65
206.153	21.27
206.389	15.12
206.625	111.38
206.86	37.65
207.096	13.08
207.331	15.12
207.567	51.99
207.802	92.95
208.037	64.27
208.273	-29.93
208.508	64.27
208.744	64.27
208.979	-13.55
209.214	-29.93
209.449	29.46
209.685	29.46
209.92	64.27
210.155	31.51
210.39	62.23
210.625	45.84
210.86	47.89
211.095	37.65
211.33	33.56
211.565	-31.98
211.8	-5.36
212.035	37.65
212.27	49.94
212.505	-36.08
212.74	31.51
212.975	29.46
213.21	80.66
213.444	51.99
213.679	39.7
213.914	-85.23
214.149	37.65
214.383	31.51
214.618	35.6
214.853	-44.27
215.087	0.79
215.322	-15.6
215.556	-9.45
215.791	-27.88
216.025	70.42
216.26	39.7
216.494	4.88
216.729	54.03
216.963	37.65
217.197	29.46
217.432	54.03
217.666	-9.45
217.9	70.42
218.135	94.99
218.369	74.51
218.603	4.88
218.837	-23.79
219.071	29.46
219.306	11.03
219.54	58.13
219.774	4.88
220.008	-11.5
220.242	23.32
220.476	-38.12
220.71	56.08
220.944	-19.69
221.178	39.7
221.411	70.42
221.645	4.88
221.879	-7.4
222.113	49.94
222.347	23.32
222.58	29.46
222.814	33.56
223.048	58.13
223.281	11.03
223.515	23.32
223.749	-11.5
223.982	-7.4
224.216	37.65
224.449	45.84
224.683	-19.69
224.916	94.99
225.15	31.51
225.383	86.8
225.617	62.23
225.85	-31.98
226.083	23.32
226.317	-17.64
226.55	47.89
226.783	111.38
227.016	-11.5
227.25	74.51
227.483	94.99
227.716	45.84
227.949	-11.5
228.182	-21.74
228.415	2.84
228.648	-17.64
228.881	31.51
229.114	37.65
229.347	45.84
229.58	88.85
229.813	94.99
230.046	29.46
230.279	74.51
230.512	84.75
230.745	64.27
230.977	23.32
231.21	56.08
231.443	41.75
231.675	4.88
231.908	25.36
232.141	13.08
232.373	101.14
232.606	-3.31
232.839	6.93
233.071	-68.84
233.304	70.42
233.536	43.8
233.769	45.84
234.001	123.67
234.233	64.27
234.466	21.27
234.698	125.71
234.93	45.84
235.163	37.65
235.395	-40.17
235.627	62.23
235.86	-3.31
236.092	51.99
236.324	86.8
236.556	-3.31
236.788	68.37
237.02	23.32
237.252	-56.56
237.484	49.94
237.716	25.36
237.948	56.08
238.18	49.94
238.412	13.08
238.644	0.79
238.876	29.46
239.108	66.32
239.34	66.32
239.571	-29.93
239.803	-1.26
240.035	13.08
240.267	4.88
240.498	105.23
240.73	82.71
240.962	70.42
241.193	-27.88
241.425	4.88
241.656	51.99
241.888	51.99
242.119	41.75
242.351	68.37
242.582	23.32
242.814	62.23
243.045	13.08
243.277	23.32
243.508	-36.08
243.739	58.13
243.971	31.51
244.202	35.6
244.433	-11.5
244.664	25.36
244.896	-11.5
245.127	47.89
245.358	31.51
245.589	82.71
245.82	19.22
246.051	17.17
246.282	-31.98
246.513	39.7
246.744	23.32
246.975	21.27
247.206	6.93
247.437	-29.93
247.668	-15.6
247.899	29.46
248.129	29.46
248.36	49.94
248.591	127.76
248.822	21.27
249.052	45.84
249.283	39.7
249.514	15.12
249.744	70.42
249.975	4.88
250.206	13.08
250.436	-3.31
250.667	29.46
250.897	-56.56
251.128	54.03
251.358	156.43
251.589	29.46
251.819	37.65
252.049	74.51
252.28	-11.5
252.51	37.65
252.74	90.9
252.971	25.36
253.201	29.46
253.431	45.84
253.661	-1.26
253.891	-68.84
254.121	49.94
254.352	39.7
254.582	-11.5
254.812	4.88
255.042	43.8
255.272	0.79
255.502	0.79
255.732	92.95
255.962	86.8
256.192	62.23
256.421	80.66
256.651	25.36
256.881	54.03
257.111	-1.26
257.341	47.89
257.57	8.98
257.8	-36.08
258.03	41.75
258.259	70.42
258.489	-19.69
258.719	70.42
258.948	37.65
259.178	74.51
259.407	45.84
259.637	29.46
259.866	23.32
260.096	43.8
260.325	45.84
260.555	97.04
260.784	62.23
261.013	33.56
261.243	21.27
261.472	99.09
261.701	0.79
261.931	13.08
262.16	51.99
262.389	88.85
262.618	-3.31
262.847	64.27
263.076	8.98
263.305	29.46
263.535	-25.84
263.764	33.56
263.993	58.13
264.222	11.03
264.451	56.08
264.679	54.03
264.908	-36.08
265.137	45.84
265.366	33.56
265.595	13.08
265.824	6.93
266.053	13.08
266.281	21.27
266.51	11.03
266.739	74.51
266.967	-3.31
267.196	131.86
267.425	72.47
267.653	-1.26
267.882	62.23
268.11	21.27
268.339	80.66
268.567	49.94
268.796	74.51
269.024	43.8
269.253	70.42
269.481	6.93
269.709	-3.31
269.938	21.27
270.166	80.66
270.394	-27.88
270.623	94.99
270.851	21.27
271.079	31.51
271.307	29.46
271.535	72.47
271.764	-11.5
271.992	74.51
272.22	4.88
272.448	-1.26
272.676	37.65
272.904	15.12
273.132	19.22
273.36	23.32
273.588	47.89
273.816	39.7
274.043	-7.4
274.271	58.13
274.499	0.79
274.727	21.27
274.955	29.46
275.182	31.51
275.41	62.23
275.638	6.93
275.866	-36.08
276.093	17.17
276.321	-23.79
276.548	6.93
276.776	19.22
277.003	23.32
277.231	4.88
277.458	56.08
277.686	47.89
277.913	21.27
278.141	-9.45
278.368	62.23
278.595	27.41
278.823	-19.69
279.05	54.03
279.277	-11.5
279.505	58.13
279.732	31.51
279.959	-44.27
280.186	29.46
280.413	17.17
280.641	58.13
280.868	17.17
281.095	-23.79
281.322	13.08
281.549	17.17
281.776	70.42
282.003	13.08
282.23	45.84
282.457	78.61
282.683	23.32
282.91	25.36
283.137	80.66
283.364	86.8
283.591	13.08
283.818	70.42
284.044	-1.26
284.271	49.94
284.498	15.12
284.724	-36.08
284.951	80.66
285.178	23.32
285.404	-7.4
285.631	21.27
285.857	23.32
286.084	62.23
286.31	-15.6
286.537	-1.26
286.763	15.12
286.99	94.99
287.216	-44.27
287.442	45.84
287.669	-23.79
287.895	39.7
288.121	70.42
288.347	-19.69
288.574	54.03
288.8	45.84
289.026	31.51
289.252	-3.31
289.478	45.84
289.704	70.42
289.931	29.46
290.157	43.8
290.383	4.88
290.609	19.22
290.835	23.32
291.06	-15.6
291.286	41.75
291.512	54.03
291.738	8.98
291.964	-27.88
292.19	-15.6
292.416	23.32
292.641	33.56
292.867	31.51
293.093	-7.4
293.319	-1.26
293.544	23.32
293.77	-27.88
293.995	92.95
294.221	66.32
294.447	-23.79
294.672	129.81
294.898	-34.03
295.123	-25.84
295.349	15.12
295.574	2.84
295.799	78.61
296.025	-11.5
296.25	-44.27
296.476	51.99
296.701	64.27
296.926	21.27
297.151	58.13
297.377	94.99
297.602	-23.79
297.827	23.32
298.052	15.12
298.277	54.03
298.502	-31.98
298.727	60.18
298.953	35.6
299.178	8.98
299.403	37.65
299.628	8.98
299.852	74.51
300.077	4.88
300.302	-23.79
300.527	-15.6
300.752	74.51
300.977	94.99
301.202	33.56
301.426	45.84
301.651	-3.31
301.876	54.03
302.101	56.08
302.325	47.89
302.55	31.51
302.775	60.18
302.999	54.03
303.224	41.75
303.448	29.46
303.673	23.32
303.897	-40.17
304.122	0.79
304.346	-9.45
304.571	-31.98
304.795	13.08
305.019	25.36
305.244	-68.84
305.468	-74.99
305.692	45.84
305.917	-7.4
306.141	21.27
306.365	-5.36
306.589	60.18
306.813	39.7
307.038	33.56
307.262	35.6
307.486	72.47
307.71	78.61
307.934	64.27
308.158	-7.4
308.382	4.88
308.606	94.99
308.83	4.88
309.054	-7.4
309.278	25.36
309.502	11.03
309.725	27.41
309.949	23.32
310.173	54.03
310.397	-1.26
310.62	8.98
310.844	21.27
311.068	45.84
311.292	0.79
311.515	15.12
311.739	62.23
311.962	-19.69
312.186	-34.03
312.41	17.17
312.633	82.71
312.857	-17.64
313.08	62.23
313.303	-38.12
313.527	-11.5
313.75	66.32
313.974	78.61
314.197	17.17
314.42	21.27
314.644	-1.26
314.867	62.23
315.09	33.56
315.313	29.46
315.536	-5.36
315.76	29.46
315.983	70.42
316.206	54.03
316.429	62.23
316.652	33.56
316.875	-11.5
317.098	66.32
317.321	15.12
317.544	33.56
317.767	47.89
317.99	23.32
318.213	-13.55
318.436	4.88
318.658	13.08
318.881	37.65
319.104	33.56
319.327	72.47
319.55	21.27
319.772	-23.79
319.995	13.08
320.218	39.7
320.44	41.75
320.663	-11.5
320.885	47.89
321.108	70.42
321.331	80.66
321.553	-11.5
321.776	54.03
321.998	0.79
322.22	49.94
322.443	119.57
322.665	82.71
322.888	8.98
323.11	82.71
323.332	-52.46
323.555	17.17
323.777	35.6
323.999	11.03
324.221	29.46
324.443	70.42
324.666	86.8
324.888	88.85
325.11	31.51
325.332	4.88
325.554	31.51
325.776	-19.69
325.998	45.84
326.22	94.99
326.442	88.85
326.664	49.94
326.886	29.46
327.108	-3.31
327.33	37.65
327.551	80.66
327.773	45.84
327.995	-19.69
328.217	19.22
328.439	111.38
328.66	62.23
328.882	58.13
329.104	60.18
329.325	51.99
329.547	58.13
329.769	6.93
329.99	35.6
330.212	-13.55
330.433	31.51
330.655	25.36
330.876	-77.04
331.098	78.61
331.319	45.84
331.54	54.03
331.762	37.65
331.983	23.32
332.204	51.99
332.426	-7.4
332.647	-7.4
332.868	37.65
333.089	6.93
333.311	-19.69
333.532	72.47
333.753	94.99
333.974	2.84
334.195	-3.31
334.416	80.66
334.637	21.27
334.858	78.61
335.079	-44.27
335.3	144.15
335.521	-9.45
335.742	51.99
335.963	68.37
336.184	31.51
336.405	70.42
336.626	54.03
336.846	-3.31
337.067	23.32
337.288	13.08
337.509	-7.4
337.729	82.71
337.95	49.94
338.171	4.88
338.391	33.56
338.612	78.61
338.833	49.94
339.053	37.65
339.274	25.36
339.494	23.32
339.715	8.98
339.935	27.41
340.156	29.46
340.376	60.18
340.596	31.51
340.817	82.71
341.037	-9.45
341.257	56.08
341.478	11.03
341.698	-9.45
341.918	47.89
342.138	111.38
342.359	15.12
342.579	41.75
342.799	-1.26
343.019	47.89
343.239	-19.69
343.459	60.18
343.679	76.56
343.899	80.66
344.119	25.36
344.339	58.13
344.559	54.03
344.779	23.32
344.999	74.51
345.219	70.42
345.439	21.27
345.658	146.19
345.878	37.65
346.098	-7.4
346.318	45.84
346.537	-11.5
346.757	66.32
346.977	72.47
347.196	-1.26
347.416	-3.31
347.636	33.56
347.855	49.94
348.075	8.98
348.294	35.6
348.514	-3.31
348.733	64.27
348.953	47.89
349.172	-1.26
349.392	45.84
349.611	-27.88
349.83	15.12
350.05	47.89
350.269	-11.5
350.488	33.56
350.707	35.6
350.927	-15.6
351.146	29.46
351.365	29.46
351.584	45.84
351.803	-17.64
352.023	47.89
352.242	-17.64
352.461	68.37
352.68	13.08
352.899	-25.84
353.118	62.23
353.337	35.6
353.556	13.08
353.775	94.99
353.993	21.27
354.212	23.32
354.431	35.6
354.65	94.99
354.869	29.46
355.088	37.65
355.306	0.79
355.525	-15.6
355.744	45.84
355.962	60.18
356.181	-27.88
356.4	-25.84
356.618	0.79
356.837	23.32
357.055	-56.56
357.274	66.32
357.492	-25.84
357.711	62.23
357.929	58.13
358.148	-11.5
358.366	29.46
358.585	23.32
358.803	41.75
359.021	54.03
359.24	-36.08
359.458	-3.31
359.676	-44.27
359.894	-5.36
360.113	-11.5
360.331	13.08
360.549	54.03
360.767	70.42
360.985	35.6
361.203	66.32
361.421	31.51
361.639	62.23
361.857	-5.36
362.075	33.56
362.293	66.32
362.511	21.27
362.729	92.95
362.947	82.71
363.165	17.17
363.383	29.46
363.601	45.84
363.819	103.19
364.036	4.88
364.254	8.98
364.472	-17.64
364.689	13.08
364.907	78.61
365.125	4.88
365.342	0.79
365.56	56.08
365.778	-1.26
365.995	62.23
366.213	37.65
366.43	17.17
366.648	78.61
366.865	49.94
367.083	21.27
367.3	21.27
367.517	78.61
367.735	66.32
367.952	33.56
368.17	39.7
368.387	60.18
368.604	45.84
368.821	0.79
369.039	0.79
369.256	2.84
369.473	62.23
369.69	-7.4
369.907	13.08
370.124	-7.4
370.341	17.17
370.558	-7.4
370.776	6.93
370.993	21.27
371.21	97.04
371.426	-48.36
371.643	37.65
371.86	70.42
372.077	13.08
372.294	45.84
372.511	45.84
372.728	-3.31
372.945	-56.56
373.161	29.46
373.378	86.8
373.595	35.6
373.811	58.13
374.028	-13.55
374.245	78.61
374.461	47.89
374.678	74.51
374.895	-23.79
375.111	4.88
375.328	-1.26
375.544	15.12
375.761	25.36
375.977	25.36
376.194	45.84
376.41	13.08
376.626	84.75
376.843	70.42
377.059	-1.26
377.275	0.79
377.492	105.23
377.708	21.27
377.924	-25.84
378.14	31.51
378.357	13.08
378.573	64.27
378.789	35.6
379.005	0.79
379.221	13.08
379.437	21.27
379.653	72.47
379.869	6.93
380.085	-7.4
380.301	25.36
380.517	66.32
380.733	6.93
380.949	99.09
381.165	25.36
381.381	-11.5
381.597	47.89
381.813	62.23
382.028	13.08
382.244	-27.88
382.46	64.27
382.676	43.8
382.891	2.84
383.107	43.8
383.323	58.13
383.538	-7.4
383.754	25.36
383.969	-19.69
384.185	17.17
384.4	47.89
384.616	-7.4
384.831	76.56
385.047	-25.84
385.262	0.79
385.478	88.85
385.693	21.27
385.909	-38.12
386.124	33.56
386.339	-1.26
386.554	88.85
386.77	29.46
386.985	6.93
387.2	-52.46
387.415	70.42
387.631	37.65
387.846	4.88
388.061	72.47
388.276	15.12
388.491	13.08
388.706	-1.26
388.921	41.75
389.136	21.27
389.351	94.99
389.566	66.32
389.781	23.32
389.996	15.12
390.211	80.66
390.426	-19.69
390.641	23.32
390.855	90.9
391.07	54.03
391.285	15.12
391.5	6.93
391.714	-19.69
391.929	15.12
392.144	-60.65
392.358	72.47
392.573	-27.88
392.788	21.27
393.002	58.13
393.217	45.84
393.431	23.32
393.646	25.36
393.86	13.08
394.075	54.03
394.289	-23.79
394.504	17.17
394.718	54.03
394.933	23.32
395.147	31.51
395.361	99.09
395.576	37.65
395.79	15.12
396.004	37.65
396.218	144.15
396.432	119.57
396.647	54.03
396.861	41.75
397.075	23.32
397.289	6.93
397.503	56.08
397.717	-9.45
397.931	39.7
398.145	37.65
398.359	45.84
398.573	56.08
398.787	80.66
399.001	74.51
399.215	62.23
399.429	101.14
399.643	13.08
399.857	25.36
400.07	25.36
400.284	6.93
400.498	27.41
400.712	-25.84
400.925	78.61
401.139	6.93
401.353	15.12
401.566	78.61
401.78	25.36
401.994	35.6
402.207	37.65
402.421	41.75
402.634	49.94
402.848	41.75
403.061	37.65
403.275	78.61
403.488	-25.84
403.702	0.79
403.915	8.98
404.128	0.79
404.342	56.08
404.555	33.56
404.768	119.57
404.982	-25.84
405.195	21.27
405.408	-25.84
405.621	29.46
405.835	29.46
406.048	25.36
406.261	33.56
406.474	4.88
406.687	45.84
406.9	31.51
407.113	19.22
407.326	56.08
407.539	15.12
407.752	49.94
407.965	94.99
408.178	21.27
408.391	62.23
408.604	-5.36
408.817	54.03
409.029	-5.36
409.242	-11.5
409.455	-1.26
409.668	21.27
409.881	4.88
410.093	90.9
410.306	78.61
410.519	54.03
410.731	15.12
410.944	-21.74
411.157	-27.88
411.369	21.27
411.582	66.32
411.794	41.75
412.007	94.99
412.219	-19.69
412.432	29.46
412.644	64.27
412.857	49.94
413.069	33.56
413.281	111.38
413.494	45.84
413.706	29.46
413.918	56.08
414.131	39.7
414.343	-3.31
414.555	-27.88
414.767	-19.69
414.979	111.38
415.192	-13.55
415.404	4.88
415.616	-17.64
415.828	23.32
416.04	70.42
416.252	13.08
416.464	-15.6
416.676	29.46
416.888	86.8
417.1	107.28
417.312	21.27
417.524	33.56
417.736	15.12
417.948	45.84
418.159	-1.26
418.371	-36.08
418.583	-17.64
418.795	21.27
419.007	23.32
419.218	64.27
419.43	11.03
419.642	27.41
419.853	29.46
420.065	29.46
420.276	45.84
420.488	-3.31
420.7	25.36
420.911	8.98
421.123	21.27
421.334	-52.46
421.546	51.99
421.757	-3.31
421.969	41.75
422.18	31.51
422.391	58.13
422.603	-38.12
422.814	54.03
423.025	23.32
423.237	17.17
423.448	45.84
423.659	82.71
423.87	56.08
424.082	41.75
424.293	-7.4
424.504	4.88
424.715	-25.84
424.926	-11.5
425.137	45.84
425.348	37.65
425.559	101.14
425.77	37.65
425.981	-9.45
426.192	8.98
426.403	17.17
426.614	13.08
426.825	43.8
427.036	101.14
427.247	33.56
427.458	31.51
427.668	-13.55
427.879	82.71
428.09	41.75
428.301	-9.45
428.511	4.88
428.722	70.42
428.933	56.08
429.143	74.51
429.354	74.51
429.565	56.08
429.775	39.7
429.986	-23.79
430.196	70.42
430.407	45.84
430.617	23.32
430.828	-25.84
431.038	29.46
431.249	62.23
431.459	-19.69
431.669	47.89
431.88	21.27
432.09	64.27
432.3	35.6
432.511	111.38
432.721	33.56
432.931	-52.46
433.141	58.13
433.351	74.51
433.562	62.23
433.772	19.22
433.982	-19.69
434.192	37.65
434.402	31.51
434.612	-7.4
434.822	54.03
435.032	29.46
435.242	51.99
435.452	6.93
435.662	29.46
435.872	64.27
436.082	-1.26
436.292	21.27
436.502	127.76
436.711	47.89
436.921	4.88
437.131	23.32
437.341	21.27
437.551	-11.5
437.76	56.08
437.97	-11.5
438.18	23.32
438.389	25.36
438.599	23.32
438.808	-44.27
439.018	82.71
439.228	66.32
439.437	4.88
439.647	41.75
439.856	-1.26
440.066	29.46
440.275	144.15
440.484	127.76
440.694	-52.46
440.903	-19.69
441.113	-19.69
441.322	70.42
441.531	-1.26
441.741	41.75
441.95	21.27
442.159	35.6
442.368	99.09
442.577	-44.27
442.787	56.08
442.996	-36.08
443.205	37.65
443.414	21.27
443.623	-31.98
443.832	54.03
444.041	37.65
444.25	-3.31
444.459	103.19
444.668	11.03
444.877	49.94
445.086	-1.26
445.295	41.75
445.504	21.27
445.713	66.32
445.922	56.08
446.13	47.89
446.339	43.8
446.548	-15.6
446.757	27.41
446.965	-7.4
447.174	27.41
447.383	4.88
447.591	-11.5
447.8	-81.13
448.009	31.51
448.217	13.08
448.426	19.22
448.634	13.08
448.843	51.99
449.051	25.36
449.26	19.22
449.468	-13.55
449.677	64.27
449.885	66.32
450.093	13.08
450.302	33.56
450.51	54.03
450.719	-31.98
450.927	6.93
451.135	0.79
451.343	-15.6
451.552	88.85
451.76	45.84
451.968	23.32
452.176	-66.8
452.384	15.12
452.592	62.23
452.8	-7.4
453.009	-40.17
453.217	47.89
453.425	37.65
453.633	74.51
453.841	66.32
454.049	4.88
454.257	-23.79
454.464	68.37
454.672	19.22
454.88	17.17
455.088	-27.88
455.296	-19.69
455.504	-23.79
455.711	37.65
455.919	4.88
456.127	8.98
456.335	29.46
456.542	-11.5
456.75	13.08
456.958	-15.6
457.165	39.7
457.373	94.99
457.581	-19.69
457.788	64.27
457.996	0.79
458.203	49.94
458.411	4.88
458.618	35.6
458.826	-1.26
459.033	56.08
459.24	70.42
459.448	45.84
459.655	33.56
459.863	49.94
460.07	4.88
460.277	13.08
460.484	31.51
460.692	39.7
460.899	35.6
461.106	29.46
461.313	2.84
461.52	6.93
461.728	54.03
461.935	47.89
462.142	49.94
462.349	54.03
462.556	25.36
462.763	4.88
462.97	-34.03
463.177	-11.5
463.384	21.27
463.591	111.38
463.798	62.23
464.005	-46.32
464.212	4.88
464.418	115.47
464.625	23.32
464.832	37.65
465.039	21.27
465.246	-11.5
465.452	29.46
465.659	49.94
465.866	-11.5
466.072	76.56
466.279	-9.45
466.486	-36.08
466.692	33.56
466.899	64.27
467.105	47.89
467.312	64.27
467.519	19.22
467.725	-9.45
467.931	2.84
468.138	-5.36
468.344	4.88
468.551	-68.84
468.757	80.66
468.964	47.89
469.17	29.46
469.376	58.13
469.583	49.94
469.789	-17.64
469.995	41.75
470.201	45.84
470.408	25.36
470.614	60.18
470.82	45.84
471.026	-19.69
471.232	21.27
471.438	-9.45
471.644	33.56
471.85	107.28
472.056	-1.26
472.262	47.89
472.468	29.46
472.674	29.46
472.88	43.8
473.086	31.51
473.292	29.46
473.498	0.79
473.704	-9.45
473.91	-25.84
474.116	-11.5
474.321	-27.88
474.527	41.75
474.733	60.18
474.939	54.03
475.144	-36.08
475.35	-40.17
475.556	66.32
475.761	6.93
475.967	70.42
476.173	72.47
476.378	78.61
476.584	47.89
476.789	56.08
476.995	-27.88
477.2	13.08
477.406	45.84
477.611	56.08
477.817	72.47
478.022	-60.65
478.227	82.71
478.433	31.51
478.638	51.99
478.843	70.42
479.049	23.32
479.254	70.42
479.459	-19.69
479.664	21.27
479.87	37.65
480.075	17.17
480.28	21.27
480.485	29.46
480.69	47.89
480.895	66.32
481.1	41.75
481.306	29.46
481.511	0.79
481.716	8.98
481.921	0.79
482.126	33.56
482.33	-17.64
482.535	4.88
482.74	0.79
482.945	54.03
483.15	25.36
483.355	78.61
483.56	54.03
483.765	43.8
483.969	21.27
484.174	70.42
484.379	17.17
484.583	45.84
484.788	45.84
484.993	31.51
485.197	29.46
485.402	4.88
485.607	-36.08
485.811	-31.98
486.016	-7.4
486.22	15.12
486.425	6.93
486.629	27.41
486.834	86.8
487.038	4.88
487.243	-29.93
487.447	-11.5
487.652	58.13
487.856	80.66
488.06	-7.4
488.265	-3.31
488.469	-19.69
488.673	51.99
488.877	-7.4
489.082	-34.03
489.286	86.8
489.49	23.32
489.694	-3.31
489.898	78.61
490.102	97.04
490.307	80.66
490.511	-19.69
490.715	80.66
490.919	-9.45
491.123	41.75
491.327	13.08
491.531	56.08
491.735	82.71
491.939	37.65
492.143	82.71
492.346	56.08
492.55	45.84
492.754	-19.69
492.958	15.12
493.162	-5.36
493.366	-3.31
493.569	113.43
493.773	-34.03
493.977	13.08
494.18	33.56
494.384	-9.45
494.588	70.42
494.791	-40.17
494.995	15.12
495.199	-34.03
495.402	21.27
495.606	78.61
495.809	15.12
496.013	4.88
496.216	-72.94
496.42	0.79
496.623	4.88
496.827	39.7
497.03	23.32
497.233	23.32
497.437	25.36
497.64	-31.98
497.843	4.88
498.047	29.46
498.25	62.23
498.453	43.8
498.656	17.17
498.86	31.51
499.063	0.79
499.266	23.32
499.469	49.94
499.672	-36.08
499.875	8.98
500.078	0.79
500.281	49.94
500.484	37.65
500.687	31.51
500.89	-9.45
501.093	29.46
501.296	-44.27
501.499	111.38
501.702	4.88
501.905	35.6
502.108	8.98
502.311	13.08
502.514	-13.55
502.716	-11.5
502.919	37.65
503.122	99.09
503.325	-3.31
503.527	-9.45
503.73	127.76
503.933	68.37
504.135	45.84
504.338	-36.08
504.541	86.8
504.743	17.17
504.946	37.65
505.148	15.12
505.351	-15.6
505.553	90.9
505.756	8.98
505.958	29.46
506.161	66.32
506.363	47.89
506.565	13.08
506.768	23.32
506.97	47.89
507.172	-29.93
507.375	78.61
507.577	31.51
507.779	70.42
507.982	54.03
508.184	66.32
508.386	76.56
508.588	4.88
508.79	-21.74
508.993	17.17
509.195	-7.4
509.397	58.13
509.599	-29.93
509.801	27.41
510.003	17.17
510.205	-40.17
510.407	-19.69
510.609	49.94
510.811	25.36
511.013	-15.6
511.215	21.27
511.417	-27.88
511.618	29.46
511.82	37.65
512.022	-9.45
512.224	-19.69
512.426	-60.65
512.627	17.17
512.829	47.89
513.031	-3.31
513.233	41.75
513.434	8.98
513.636	45.84
513.838	-19.69
514.039	17.17
514.241	43.8
514.442	70.42
514.644	58.13
514.845	-50.41
515.047	33.56
515.248	33.56
515.45	17.17
515.651	49.94
515.853	78.61
516.054	33.56
516.256	6.93
516.457	-25.84
516.658	-31.98
516.86	72.47
517.061	19.22
517.262	13.08
517.463	8.98
517.665	37.65
517.866	72.47
518.067	4.88
518.268	33.56
518.469	80.66
518.67	-56.56
518.872	-19.69
519.073	19.22
519.274	43.8
519.475	76.56
519.676	66.32
519.877	8.98
520.078	29.46
520.279	37.65
520.48	13.08
520.681	39.7
520.881	-11.5
521.082	31.51
521.283	45.84
521.484	31.51
521.685	84.75
521.886	6.93
522.086	8.98
522.287	64.27
522.488	45.84
522.689	62.23
522.889	-68.84
523.09	-19.69
523.291	62.23
523.491	94.99
523.692	37.65
523.892	25.36
524.093	25.36
524.294	43.8
524.494	64.27
524.695	13.08
524.895	21.27
525.096	13.08
525.296	37.65
525.496	29.46
525.697	11.03
525.897	23.32
526.098	17.17
526.298	58.13
526.498	0.79
526.699	-27.88
526.899	33.56
527.099	37.65
527.299	-17.64
527.499	-27.88
527.7	17.17
527.9	0.79
528.1	78.61
528.3	45.84
528.5	45.84
528.7	29.46
528.9	-19.69
529.1	31.51
529.3	47.89
529.5	-25.84
529.7	74.51
529.9	37.65
530.1	68.37
530.3	-25.84
530.5	-36.08
530.7	4.88
530.9	17.17
531.1	37.65
531.3	-11.5
531.499	74.51
531.699	49.94
531.899	37.65
532.099	62.23
532.298	-3.31
532.498	54.03
532.698	64.27
532.897	17.17
533.097	86.8
533.297	11.03
533.496	56.08
533.696	21.27
533.895	45.84
534.095	-17.64
534.294	64.27
534.494	37.65
534.693	-52.46
534.893	37.65
535.092	-1.26
535.292	13.08
535.491	47.89
535.69	6.93
535.89	54.03
536.089	39.7
536.288	31.51
536.488	31.51
536.687	4.88
536.886	4.88
537.085	-36.08
537.285	-56.56
537.484	49.94
537.683	72.47
537.882	29.46
538.081	39.7
538.28	76.56
538.479	0.79
538.678	4.88
538.877	62.23
539.076	-9.45
539.275	-21.74
539.474	80.66
539.673	-3.31
539.872	2.84
540.071	4.88
540.27	70.42
540.469	33.56
540.668	-3.31
540.867	-19.69
541.065	74.51
541.264	37.65
541.463	6.93
541.662	-17.64
541.861	70.42
542.059	25.36
542.258	82.71
542.457	43.8
542.655	8.98
542.854	70.42
543.052	-5.36
543.251	45.84
543.45	21.27
543.648	66.32
543.847	25.36
544.045	-17.64
544.244	6.93
544.442	49.94
544.641	31.51
544.839	41.75
545.037	-42.22
545.236	17.17
545.434	45.84
545.632	72.47
545.831	56.08
546.029	39.7
546.227	-7.4
546.426	62.23
546.624	47.89
546.822	64.27
547.02	4.88
547.218	29.46
547.417	13.08
547.615	-17.64
547.813	111.38
548.011	41.75
548.209	76.56
548.407	29.46
548.605	35.6
548.803	62.23
549.001	33.56
549.199	-9.45
549.397	6.93
549.595	17.17
549.793	-3.31
549.991	6.93
550.189	0.79
550.387	21.27
550.584	33.56
550.782	37.65
550.98	-27.88
551.178	-40.17
551.376	-3.31
551.573	58.13
551.771	54.03
551.969	-17.64
552.166	66.32
552.364	45.84
552.562	-3.31
552.759	-46.32
552.957	45.84
553.154	94.99
553.352	84.75
553.55	47.89
553.747	31.51
553.945	25.36
554.142	-3.31
554.339	2.84
554.537	70.42
554.734	8.98
554.932	64.27
555.129	8.98
555.326	115.47
555.524	70.42
555.721	-25.84
555.918	8.98
556.116	17.17
556.313	2.84
556.51	13.08
556.707	21.27
556.904	111.38
557.102	-17.64
557.299	39.7
557.496	4.88
557.693	23.32
557.89	54.03
558.087	127.76
558.284	66.32
558.481	0.79
558.678	39.7
558.875	70.42
559.072	37.65
559.269	-34.03
559.466	105.23
559.663	94.99
559.86	45.84
560.057	15.12
560.254	-11.5
560.45	68.37
560.647	23.32
560.844	49.94
561.041	13.08
561.237	6.93
561.434	47.89
561.631	68.37
561.828	39.7
562.024	6.93
562.221	-9.45
562.418	56.08
562.614	60.18
562.811	90.9
563.007	4.88
563.204	103.19
563.4	31.51
563.597	33.56
563.793	4.88
563.99	-3.31
564.186	103.19
564.383	45.84
564.579	66.32
564.775	33.56
564.972	56.08
565.168	115.47
565.365	92.95
565.561	29.46
565.757	21.27
565.953	54.03
566.15	49.94
566.346	13.08
566.542	68.37
566.738	-15.6
566.934	-27.88
567.131	19.22
567.327	25.36
567.523	47.89
567.719	23.32
567.915	23.32
568.111	-50.41
568.307	-19.69
568.503	88.85
568.699	17.17
568.895	21.27
569.091	25.36
569.287	17.17
569.483	13.08
569.679	-11.5
569.875	-29.93
570.07	41.75
570.266	144.15
570.462	-23.79
570.658	62.23
570.854	49.94
571.049	41.75
571.245	29.46
571.441	82.71
571.636	-11.5
571.832	-27.88
572.028	56.08
572.223	39.7
572.419	86.8
572.615	31.51
572.81	-19.69
573.006	62.23
573.201	6.93
573.397	45.84
573.592	0.79
573.788	45.84
573.983	94.99
574.179	17.17
574.374	31.51
574.569	49.94
574.765	13.08
574.96	31.51
575.156	49.94
575.351	13.08
575.546	27.41
575.741	-29.93
575.937	78.61
576.132	-15.6
576.327	97.04
576.522	37.65
576.718	-11.5
576.913	-27.88
577.108	-15.6
577.303	-34.03
577.498	17.17
577.693	49.94
577.888	-7.4
578.083	86.8
578.278	-31.98
578.473	60.18
578.668	27.41
578.863	33.56
579.058	45.84
579.253	82.71
579.448	103.19
579.643	41.75
579.838	-40.17
580.033	33.56
580.227	31.51
580.422	17.17
580.617	-7.4
580.812	62.23
581.006	62.23
581.201	21.27
581.396	47.89
581.591	-21.74
581.785	21.27
581.98	6.93
582.175	56.08
582.369	-3.31
582.564	45.84
582.758	49.94
582.953	29.46
583.147	-15.6
583.342	33.56
583.536	21.27
583.731	-44.27
583.925	62.23
584.12	-9.45
584.314	29.46
584.509	37.65
584.703	-1.26
584.897	23.32
585.092	105.23
585.286	74.51
585.48	43.8
585.674	86.8
585.869	49.94
586.063	13.08
586.257	-5.36
586.451	51.99
586.646	33.56
586.84	-19.69
587.034	49.94
587.228	97.04
587.422	21.27
587.616	33.56
587.81	109.33
588.004	86.8
588.198	64.27
588.392	-27.88
588.586	45.84
588.78	-27.88
588.974	29.46
589.168	15.12
589.362	111.38
589.556	-31.98
589.75	45.84
589.944	99.09
590.137	21.27
590.331	4.88
590.525	41.75
590.719	0.79
590.913	-1.26
591.106	-9.45
591.3	15.12
591.494	49.94
591.687	35.6
591.881	-23.79
592.075	66.32
592.268	51.99
592.462	-52.46
592.655	-48.36
592.849	6.93
593.043	76.56
593.236	-3.31
593.43	8.98
593.623	-3.31
593.817	54.03
594.01	35.6
594.203	78.61
594.397	45.84
594.59	84.75
594.784	82.71
594.977	6.93
595.17	35.6
595.364	72.47
595.557	66.32
595.75	33.56
595.943	54.03
596.137	90.9
596.33	74.51
596.523	45.84
596.716	56.08
596.909	21.27
597.102	31.51
597.296	-23.79
597.489	4.88
597.682	25.36
597.875	64.27
598.068	103.19
598.261	-36.08
598.454	0.79
598.647	21.27
598.84	-64.75
599.033	21.27
599.226	39.7
599.419	-15.6
599.611	94.99
599.804	-1.26
599.997	41.75
600.19	-31.98
600.383	-19.69
600.576	29.46
600.768	43.8
600.961	-9.45
601.154	49.94
601.347	39.7
601.539	-36.08
601.732	-34.03
601.925	0.79
602.117	21.27
602.31	54.03
602.502	-52.46
602.695	13.08
602.888	58.13
603.08	8.98
603.273	-9.45
603.465	33.56
603.658	64.27
603.85	13.08
604.043	-11.5
604.235	33.56
604.427	4.88
604.62	88.85
604.812	33.56
605.004	8.98
605.197	70.42
605.389	-52.46
605.581	17.17
605.774	113.43
605.966	66.32
606.158	-11.5
606.35	78.61
606.543	62.23
606.735	23.32
606.927	4.88
607.119	33.56
607.311	-34.03
607.503	13.08
607.695	15.12
607.887	-9.45
608.079	-15.6
608.271	8.98
608.463	66.32
608.655	21.27
608.847	25.36
609.039	39.7
609.231	49.94
609.423	-42.22
609.615	-40.17
609.807	23.32
609.999	47.89
610.191	17.17
610.382	13.08
610.574	-3.31
610.766	-3.31
610.958	31.51
611.15	62.23
611.341	33.56
611.533	4.88
611.725	41.75
611.916	4.88
612.108	17.17
612.3	4.88
612.491	17.17
612.683	13.08
612.874	4.88
613.066	17.17
613.257	29.46
613.449	84.75
613.64	90.9
613.832	8.98
614.023	-9.45
614.215	45.84
614.406	70.42
614.598	-15.6
614.789	0.79
614.98	21.27
615.172	41.75
615.363	41.75
615.554	62.23
615.746	33.56
615.937	54.03
616.128	15.12
616.319	127.76
616.511	23.32
616.702	31.51
616.893	47.89
617.084	62.23
617.275	23.32
617.466	23.32
617.658	31.51
617.849	37.65
618.04	21.27
618.231	-1.26
618.422	17.17
618.613	37.65
618.804	39.7
618.995	45.84
619.186	70.42
619.377	13.08
619.568	8.98
619.758	90.9
619.949	13.08
620.14	-7.4
620.331	49.94
620.522	74.51
620.713	17.17
620.903	4.88
621.094	-11.5
621.285	41.75
621.476	47.89
621.666	97.04
621.857	-13.55
622.048	125.71
622.238	21.27
622.429	68.37
622.62	-7.4
622.81	37.65
623.001	49.94
623.191	-11.5
623.382	33.56
623.572	82.71
623.763	-9.45
623.953	94.99
624.144	13.08
624.334	47.89
624.525	43.8
624.715	78.61
624.905	103.19
625.096	-15.6
625.286	-7.4
625.477	-19.69
625.667	15.12
625.857	21.27
626.047	54.03
626.238	13.08
626.428	45.84
626.618	21.27
626.808	105.23
626.999	-74.99
627.189	49.94
627.379	33.56
627.569	66.32
627.759	103.19
627.949	-36.08
628.139	13.08
628.329	62.23
628.519	4.88
628.709	13.08
628.899	15.12
629.089	76.56
629.279	15.12
629.469	4.88
629.659	4.88
629.849	129.81
630.039	-23.79
630.229	17.17
630.419	-36.08
630.609	62.23
630.798	54.03
630.988	37.65
631.178	70.42
631.368	45.84
631.557	37.65
631.747	-23.79
631.937	0.79
632.127	54.03
632.316	84.75
632.506	86.8
632.696	47.89
632.885	-3.31
633.075	56.08
633.264	11.03
633.454	58.13
633.643	82.71
633.833	-11.5
634.022	-11.5
634.212	45.84
634.401	64.27
634.591	23.32
634.78	-27.88
634.97	-56.56
635.159	33.56
635.348	49.94
635.538	54.03
635.727	6.93
635.916	66.32
636.106	80.66
636.295	-21.74
636.484	66.32
636.674	4.88
636.863	60.18
637.052	17.17
637.241	23.32
637.43	-64.75
637.619	35.6
637.809	51.99
637.998	86.8
638.187	-23.79
638.376	-34.03
638.565	-56.56
638.754	66.32
638.943	-27.88
639.132	62.23
639.321	45.84
639.51	13.08
639.699	6.93
639.888	-23.79
640.077	17.17
640.266	60.18
640.455	31.51
640.643	31.51
640.832	27.41
641.021	70.42
641.21	74.51
641.399	31.51
641.587	11.03
641.776	19.22
641.965	29.46
642.154	31.51
642.342	8.98
642.531	70.42
642.72	4.88
642.908	17.17
643.097	58.13
643.286	-31.98
643.474	25.36
643.663	41.75
643.851	0.79
644.04	37.65
644.228	-7.4
644.417	-11.5
644.605	45.84
644.794	33.56
644.982	8.98
645.171	47.89
645.359	54.03
645.547	13.08
645.736	62.23
645.924	-15.6
646.112	-31.98
646.301	21.27
646.489	58.13
646.677	8.98
646.866	8.98
647.054	-46.32
647.242	66.32
647.43	17.17
647.618	-13.55
647.807	25.36
647.995	54.03
648.183	0.79
648.371	13.08
648.559	13.08
648.747	-9.45
648.935	37.65
649.123	15.12
649.311	23.32
649.499	97.04
649.687	29.46
649.875	23.32
650.063	37.65
650.251	-52.46
650.439	49.94
650.627	78.61
650.815	37.65
651.003	66.32
651.191	49.94
651.378	17.17
651.566	-17.64
651.754	39.7
651.942	4.88
652.13	31.51
652.317	-9.45
652.505	60.18
652.693	27.41
652.88	21.27
653.068	4.88
653.256	78.61
653.443	107.28
653.631	-27.88
653.819	-27.88
654.006	-27.88
654.194	58.13
654.381	13.08
654.569	37.65
654.756	82.71
654.944	54.03
655.131	21.27
655.319	47.89
655.506	31.51
655.693	6.93
655.881	-3.31
656.068	82.71
656.256	64.27
656.443	-66.8
656.63	-19.69
656.818	17.17
657.005	47.89
657.192	41.75
657.379	64.27
657.567	74.51
657.754	-11.5
657.941	74.51
658.128	15.12
658.315	88.85
658.502	78.61
658.69	-42.22
658.877	45.84
659.064	66.32
659.251	33.56
659.438	33.56
659.625	35.6
659.812	70.42
659.999	39.7
660.186	84.75
660.373	-11.5
660.56	-11.5
660.747	29.46
660.934	-52.46
661.121	21.27
661.308	-52.46
661.494	-7.4
661.681	105.23
661.868	-31.98
662.055	37.65
662.242	29.46
662.428	23.32
662.615	-27.88
662.802	47.89
662.989	90.9
663.175	33.56
663.362	54.03
663.549	103.19
663.735	58.13
663.922	62.23
664.109	-9.45
664.295	99.09
664.482	70.42
664.668	62.23
664.855	-44.27
665.041	2.84
665.228	11.03
665.414	-36.08
665.601	58.13
665.787	0.79
665.974	66.32
666.16	127.76
666.347	49.94
666.533	19.22
666.719	37.65
666.906	-29.93
667.092	62.23
667.278	121.62
667.465	31.51
667.651	37.65
667.837	33.56
668.023	4.88
668.21	72.47
668.396	4.88
668.582	6.93
668.768	60.18
668.954	39.7
669.14	0.79
669.327	80.66
669.513	45.84
669.699	2.84
669.885	45.84
670.071	103.19
670.257	29.46
670.443	29.46
670.629	33.56
670.815	-19.69
671.001	45.84
671.187	-11.5
671.373	56.08
671.559	-36.08
671.744	-1.26
671.93	6.93
672.116	39.7
672.302	-9.45
672.488	45.84
672.674	54.03
672.859	39.7
673.045	13.08
673.231	54.03
673.417	90.9
673.602	54.03
673.788	4.88
673.974	25.36
674.159	58.13
674.345	-7.4
674.531	58.13
674.716	23.32
674.902	29.46
675.087	-17.64
675.273	74.51
675.459	62.23
675.644	66.32
675.83	-7.4
676.015	15.12
676.2	101.14
676.386	70.42
676.571	-19.69
676.757	37.65
676.942	-64.75
677.128	82.71
677.313	19.22
677.498	21.27
677.684	-3.31
677.869	25.36
678.054	0.79
678.24	39.7
678.425	-19.69
678.61	2.84
678.795	45.84
678.98	29.46
679.166	56.08
679.351	8.98
679.536	94.99
679.721	92.95
679.906	4.88
680.091	47.89
680.276	37.65
680.461	62.23
680.647	33.56
680.832	68.37
681.017	94.99
681.202	47.89
681.387	86.8
681.572	41.75
681.756	-15.6
681.941	-19.69
682.126	107.28
682.311	78.61
682.496	4.88
682.681	56.08
682.866	76.56
683.051	37.65
683.235	-11.5
683.42	4.88
683.605	29.46
683.79	-42.22
683.974	8.98
684.159	8.98
684.344	70.42
684.529	-27.88
684.713	19.22
684.898	19.22
685.083	-23.79
685.267	-3.31
685.452	8.98
685.636	-27.88
685.821	49.94
686.005	-3.31
686.19	15.12
686.375	-7.4
686.559	6.93
686.744	58.13
686.928	29.46
687.112	0.79
687.297	-9.45
687.481	-19.69
687.666	-1.26
687.85	37.65
688.034	45.84
688.219	31.51
688.403	15.12
688.587	80.66
688.772	-11.5
688.956	17.17
689.14	29.46
689.324	51.99
689.509	54.03
689.693	-27.88
689.877	27.41
690.061	92.95
690.245	66.32
690.43	66.32
690.614	17.17
690.798	-1.26
690.982	-1.26
691.166	13.08
691.35	6.93
691.534	29.46
691.718	45.84
691.902	13.08
692.086	17.17
692.27	47.89
692.454	4.88
692.638	21.27
692.822	6.93
693.006	39.7
693.19	29.46
693.373	25.36
693.557	4.88
693.741	29.46
693.925	37.65
694.109	29.46
694.293	-44.27
694.476	37.65
694.66	62.23
694.844	64.27
695.027	94.99
695.211	-3.31
695.395	37.65
695.578	-7.4
695.762	4.88
695.946	33.56
696.129	105.23
696.313	58.13
696.497	45.84
696.68	-19.69
696.864	27.41
697.047	70.42
697.231	4.88
697.414	62.23
697.598	70.42
697.781	113.43
697.965	21.27
698.148	17.17
698.331	33.56
698.515	25.36
698.698	94.99
698.881	54.03
699.065	17.17
699.248	54.03
699.431	97.04
699.615	43.8
699.798	-19.69
699.981	54.03
700.165	37.65
700.348	0.79
700.531	37.65
700.714	8.98
700.897	-31.98
701.08	13.08
701.264	-23.79
701.447	56.08
701.63	70.42
701.813	17.17
701.996	76.56
702.179	54.03
702.362	33.56
702.545	-7.4
702.728	-7.4
702.911	62.23
703.094	58.13
703.277	31.51
703.46	13.08
703.643	47.89
703.826	-1.26
704.009	39.7
704.191	-27.88
704.374	72.47
704.557	72.47
704.74	70.42
704.923	152.34
705.106	45.84
705.288	41.75
705.471	-40.17
705.654	58.13
705.837	17.17
706.019	31.51
706.202	58.13
706.385	64.27
706.567	17.17
706.75	41.75
706.932	37.65
707.115	-5.36
707.298	33.56
707.48	-15.6
707.663	41.75
707.845	-3.31
708.028	21.27
708.21	4.88
708.393	58.13
708.575	6.93
708.758	21.27
708.94	41.75
709.123	-36.08
709.305	39.7
709.487	-3.31
709.67	-19.69
709.852	2.84
710.034	54.03
710.217	-15.6
710.399	111.38
710.581	25.36
710.764	-15.6
710.946	-3.31
711.128	4.88
711.31	-15.6
711.492	15.12
711.675	78.61
711.857	8.98
712.039	39.7
712.221	82.71
712.403	-38.12
712.585	56.08
712.767	-11.5
712.949	103.19
713.131	0.79
713.314	72.47
713.496	41.75
713.678	19.22
713.86	-9.45
714.041	4.88
714.223	25.36
714.405	-3.31
714.587	-23.79
714.769	21.27
714.951	103.19
715.133	70.42
715.315	-15.6
715.497	37.65
715.678	45.84
715.86	-1.26
716.042	41.75
716.224	27.41
716.406	23.32
716.587	97.04
716.769	58.13
716.951	62.23
717.132	-68.84
717.314	-11.5
717.496	-11.5
717.677	37.65
717.859	62.23
718.041	99.09
718.222	-1.26
718.404	31.51
718.585	8.98
718.767	-21.74
718.948	17.17
719.13	70.42
719.311	6.93
719.493	17.17
719.674	54.03
719.856	27.41
720.037	45.84
720.219	58.13
720.4	-52.46
720.581	-36.08
720.763	-36.08
720.944	41.75
721.125	-3.31
721.307	-36.08
721.488	56.08
721.669	13.08
721.85	13.08
722.032	-1.26
722.213	11.03
722.394	31.51
722.575	4.88
722.756	-34.03
722.938	-52.46
723.119	45.84
723.3	-31.98
723.481	-15.6
723.662	4.88
723.843	4.88
724.024	19.22
724.205	66.32
724.386	37.65
724.567	39.7
724.748	56.08
724.929	21.27
725.11	70.42
725.291	15.12
725.472	74.51
725.653	-31.98
725.834	33.56
726.015	29.46
726.196	-21.74
726.377	58.13
726.557	113.43
726.738	8.98
726.919	11.03
727.1	78.61
727.281	-3.31
727.461	78.61
727.642	58.13
727.823	78.61
728.004	62.23
728.184	62.23
728.365	-17.64
728.546	72.47
728.726	13.08
728.907	45.84
729.087	109.33
729.268	31.51
729.449	47.89
729.629	33.56
729.81	13.08
729.99	97.04
730.171	82.71
730.351	-15.6
730.532	6.93
730.712	70.42
730.893	37.65
731.073	0.79
731.253	-3.31
731.434	23.32
731.614	-9.45
731.795	62.23
731.975	-34.03
732.155	25.36
732.336	37.65
732.516	17.17
732.696	-13.55
732.876	54.03
733.057	8.98
733.237	17.17
733.417	-38.12
733.597	17.17
733.778	39.7
733.958	4.88
734.138	-48.36
734.318	45.84
734.498	-3.31
734.678	23.32
734.858	21.27
735.038	56.08
735.218	45.84
735.398	66.32
735.579	17.17
735.759	39.7
735.939	45.84
736.119	45.84
736.298	49.94
736.478	45.84
736.658	-40.17
736.838	70.42
737.018	62.23
737.198	-25.84
737.378	8.98
737.558	56.08
737.738	47.89
737.917	4.88
738.097	37.65
738.277	-11.5
738.457	21.27
738.637	49.94
738.816	58.13
738.996	54.03
739.176	-48.36
739.355	17.17
739.535	-52.46
739.715	37.65
739.894	4.88
740.074	33.56
740.254	37.65
740.433	45.84
740.613	21.27
740.792	-46.32
740.972	35.6
741.151	15.12
741.331	2.84
741.51	-3.31
741.69	78.61
741.869	-1.26
742.049	49.94
742.228	62.23
742.408	31.51
742.587	37.65
742.766	58.13
742.946	11.03
743.125	45.84
743.305	-15.6
743.484	13.08
743.663	78.61
743.842	-34.03
744.022	33.56
744.201	31.51
744.38	37.65
744.56	84.75
744.739	37.65
744.918	-11.5
745.097	29.46
745.276	-7.4
745.455	-38.12
745.635	-25.84
745.814	70.42
745.993	4.88
746.172	70.42
746.351	58.13
746.53	13.08
746.709	49.94
746.888	-23.79
747.067	33.56
747.246	-11.5
747.425	-42.22
747.604	0.79
747.783	8.98
747.962	23.32
748.141	58.13
748.32	37.65
748.499	41.75
748.677	-11.5
748.856	80.66
749.035	-11.5
749.214	86.8
749.393	0.79
749.572	70.42
749.75	62.23
749.929	13.08
750.108	37.65
750.287	-11.5
750.465	92.95
750.644	0.79
750.823	25.36
751.001	37.65
751.18	-11.5
751.359	37.65
751.537	4.88
751.716	13.08
751.894	4.88
752.073	37.65
752.251	37.65
752.43	-3.31
752.609	66.32
752.787	54.03
752.966	-58.6
753.144	35.6
753.322	72.47
753.501	4.88
753.679	54.03
753.858	31.51
754.036	-9.45
754.215	-23.79
754.393	94.99
754.571	-23.79
754.75	60.18
754.928	-11.5
755.106	-3.31
755.284	-23.79
755.463	8.98
755.641	-38.12
755.819	25.36
755.997	31.51
756.176	-3.31
756.354	21.27
756.532	-15.6
756.71	0.79
756.888	19.22
757.066	-36.08
757.245	66.32
757.423	29.46
757.601	35.6
757.779	49.94
757.957	37.65
758.135	39.7
758.313	-15.6
758.491	25.36
758.669	-11.5
758.847	25.36
759.025	29.46
759.203	-11.5
759.381	62.23
759.559	15.12
759.737	-36.08
759.915	17.17
760.092	56.08
760.27	78.61
760.448	-17.64
760.626	-54.51
760.804	41.75
760.981	58.13
761.159	-11.5
761.337	11.03
761.515	23.32
761.692	21.27
761.87	29.46
762.048	-19.69
762.226	37.65
762.403	54.03
762.581	45.84
762.759	58.13
762.936	107.28
763.114	17.17
763.291	88.85
763.469	-3.31
763.647	29.46
763.824	66.32
764.002	33.56
764.179	-9.45
764.357	115.47
764.534	23.32
764.712	-52.46
764.889	-23.79
765.066	58.13
765.244	41.75
765.421	17.17
765.599	37.65
765.776	54.03
765.953	84.75
766.131	39.7
766.308	29.46
766.485	62.23
766.663	-36.08
766.84	56.08
767.017	6.93
767.194	37.65
767.372	-11.5
767.549	70.42
767.726	-27.88
767.903	82.71
768.081	15.12
768.258	-9.45
768.435	13.08
768.612	-1.26
768.789	-3.31
768.966	66.32
769.143	-27.88
769.32	41.75
769.497	19.22
769.674	0.79
769.851	-23.79
770.028	88.85
770.205	-40.17
770.382	39.7
770.559	-1.26
770.736	33.56
770.913	8.98
771.09	109.33
771.267	37.65
771.444	-38.12
771.621	-7.4
771.798	70.42
771.975	45.84
772.151	17.17
772.328	70.42
772.505	58.13
772.682	78.61
772.859	-44.27
773.035	33.56
773.212	70.42
773.389	13.08
773.565	13.08
773.742	64.27
773.919	21.27
774.096	60.18
774.272	51.99
774.449	82.71
774.625	58.13
774.802	109.33
774.979	23.32
775.155	6.93
775.332	23.32
775.508	54.03
775.685	62.23
775.861	54.03
776.038	41.75
776.214	-11.5
776.391	6.93
776.567	-44.27
776.744	56.08
776.92	115.47
777.096	45.84
777.273	88.85
777.449	-52.46
777.626	39.7
777.802	41.75
777.978	94.99
778.155	-27.88
778.331	4.88
778.507	-3.31
778.683	58.13
778.86	47.89
779.036	-11.5
779.212	21.27
779.388	15.12
779.565	56.08
779.741	-9.45
779.917	13.08
780.093	17.17
780.269	47.89
780.445	-50.41
780.621	13.08
780.797	6.93
780.974	4.88
781.15	41.75
781.326	29.46
781.502	-42.22
781.678	64.27
781.854	49.94
782.03	37.65
782.206	43.8
782.382	0.79
782.558	13.08
782.733	31.51
782.909	-66.8
783.085	51.99
783.261	-7.4
783.437	-31.98
783.613	-13.55
783.789	-19.69
783.965	47.89
784.14	76.56
784.316	66.32
784.492	70.42
784.668	54.03
784.843	56.08
785.019	8.98
785.195	19.22
785.371	105.23
785.546	56.08
785.722	-25.84
785.898	72.47
786.073	33.56
786.249	107.28
786.424	-31.98
786.6	39.7
786.776	37.65
786.951	70.42
787.127	17.17
787.302	62.23
787.478	54.03
787.653	70.42
787.829	45.84
788.004	-19.69
788.18	0.79
788.355	66.32
788.531	-42.22
788.706	21.27
788.881	-19.69
789.057	72.47
789.232	21.27
789.408	39.7
789.583	-19.69
789.758	8.98
789.934	23.32
790.109	62.23
790.284	-27.88
790.459	49.94
790.635	17.17
790.81	37.65
790.985	31.51
791.16	-34.03
791.336	29.46
791.511	19.22
791.686	70.42
791.861	62.23
792.036	13.08
792.211	33.56
792.387	49.94
792.562	88.85
792.737	51.99
792.912	21.27
793.087	31.51
793.262	86.8
793.437	8.98
793.612	86.8
793.787	131.86
793.962	90.9
794.137	29.46
794.312	51.99
794.487	31.51
794.662	58.13
794.837	-36.08
795.011	0.79
795.186	-52.46
795.361	-27.88
795.536	29.46
795.711	45.84
795.886	-23.79
796.06	105.23
796.235	49.94
796.41	4.88
796.585	90.9
796.76	64.27
796.934	4.88
797.109	21.27
797.284	19.22
797.458	51.99
797.633	-72.94
797.808	-11.5
797.982	-23.79
798.157	72.47
798.332	-56.56
798.506	47.89
798.681	-1.26
798.855	-36.08
799.03	29.46
799.204	29.46
799.379	76.56
799.553	25.36
799.728	-17.64
799.902	-19.69
800.077	94.99
800.251	72.47
800.426	39.7
800.6	-17.64
800.775	-19.69
800.949	2.84
801.123	-27.88
801.298	21.27
801.472	49.94
801.647	13.08
801.821	41.75
801.995	-19.69
802.169	-7.4
802.344	-7.4
802.518	88.85
802.692	21.27
802.867	11.03
803.041	41.75
803.215	-17.64
803.389	-1.26
803.563	94.99
803.737	119.57
803.912	21.27
804.086	4.88
804.26	-40.17
804.434	8.98
804.608	17.17
804.782	78.61
804.956	17.17
805.13	2.84
805.304	62.23
805.478	74.51
805.652	35.6
805.826	62.23
806	60.18
806.174	66.32
806.348	29.46
806.522	-3.31
806.696	66.32
806.87	-3.31
807.044	45.84
807.218	62.23
807.392	21.27
807.566	-3.31
807.739	11.03
807.913	58.13
808.087	29.46
808.261	51.99
808.435	86.8
808.608	-3.31
808.782	-3.31
808.956	37.65
809.13	-58.6
809.303	88.85
809.477	0.79
809.651	37.65
809.824	45.84
809.998	17.17
810.172	25.36
810.345	37.65
810.519	8.98
810.692	-34.03
810.866	17.17
811.04	8.98
811.213	13.08
811.387	115.47
811.56	47.89
811.734	19.22
811.907	-36.08
812.081	15.12
812.254	62.23
812.428	64.27
812.601	21.27
812.774	37.65
812.948	-23.79
813.121	-17.64
813.295	45.84
813.468	27.41
813.641	45.84
813.815	8.98
813.988	-5.36
814.161	121.62
814.335	88.85
814.508	54.03
814.681	29.46
814.854	121.62
815.028	0.79
815.201	29.46
815.374	29.46
815.547	21.27
815.72	-11.5
815.894	4.88
816.067	21.27
816.24	58.13
816.413	29.46
816.586	49.94
816.759	45.84
816.932	78.61
817.105	-23.79
817.278	86.8
817.452	-48.36
817.625	47.89
817.798	64.27
817.971	41.75
818.144	86.8
818.317	17.17
818.49	72.47
818.662	-3.31
818.835	-11.5
819.008	15.12
819.181	54.03
819.354	19.22
819.527	21.27
819.7	62.23
819.873	88.85
820.046	23.32
820.218	-25.84
820.391	39.7
820.564	-3.31
820.737	64.27
820.909	4.88
821.082	17.17
821.255	45.84
821.428	37.65
821.6	78.61
821.773	37.65
821.946	-3.31
822.118	64.27
822.291	54.03
822.464	56.08
822.636	-15.6
822.809	82.71
822.982	49.94
823.154	54.03
823.327	-23.79
823.499	-25.84
823.672	-15.6
823.844	11.03
824.017	54.03
824.189	54.03
824.362	-3.31
824.534	70.42
824.707	6.93
824.879	70.42
825.052	29.46
825.224	31.51
825.396	8.98
825.569	54.03
825.741	54.03
825.914	29.46
826.086	-7.4
826.258	2.84
826.431	29.46
826.603	62.23
826.775	45.84
826.947	33.56
827.12	80.66
827.292	17.17
827.464	58.13
827.636	29.46
827.809	78.61
827.981	80.66
828.153	70.42
828.325	41.75
828.497	45.84
828.669	4.88
828.842	-11.5
829.014	-34.03
829.186	8.98
829.358	94.99
829.53	8.98
829.702	-11.5
829.874	80.66
830.046	21.27
830.218	-44.27
830.39	39.7
830.562	13.08
830.734	31.51
830.906	78.61
831.078	66.32
831.25	15.12
831.422	-34.03
831.594	45.84
831.766	111.38
831.937	33.56
832.109	86.8
832.281	4.88
832.453	54.03
832.625	2.84
832.797	29.46
832.968	17.17
833.14	-15.6
833.312	56.08
833.484	54.03
833.655	29.46
833.827	-34.03
833.999	6.93
834.171	29.46
834.342	82.71
834.514	94.99
834.686	-107.75
834.857	56.08
835.029	-40.17
835.2	-36.08
835.372	-11.5
835.544	33.56
835.715	47.89
835.887	-42.22
836.058	-7.4
836.23	13.08
836.401	21.27
836.573	41.75
836.744	-11.5
836.916	35.6
837.087	13.08
837.259	70.42
837.43	86.8
837.602	66.32
837.773	-3.31
837.945	21.27
838.116	-9.45
838.287	23.32
838.459	17.17
838.63	-19.69
838.801	-50.41
838.973	0.79
839.144	41.75
839.315	-23.79
839.487	-17.64
839.658	54.03
839.829	-23.79
840	35.6
840.172	-46.32
840.343	78.61
840.514	8.98
840.685	-3.31
840.856	56.08
841.027	21.27
841.199	-44.27
841.37	35.6
841.541	82.71
841.712	39.7
841.883	-3.31
842.054	74.51
842.225	47.89
842.396	0.79
842.567	64.27
842.738	62.23
842.909	-23.79
843.08	119.57
843.251	49.94
843.422	49.94
843.593	33.56
843.764	29.46
843.935	37.65
844.106	58.13
844.277	23.32
844.448	43.8
844.619	-19.69
844.79	72.47
844.96	37.65
845.131	4.88
845.302	47.89
845.473	-3.31
845.644	25.36
845.814	33.56
845.985	49.94
846.156	21.27
846.327	17.17
846.497	74.51
846.668	21.27
846.839	33.56
847.01	25.36
847.18	88.85
847.351	-5.36
847.522	6.93
847.692	21.27
847.863	82.71
848.033	17.17
848.204	33.56
848.375	4.88
848.545	66.32
848.716	47.89
848.886	74.51
849.057	92.95
849.227	47.89
849.398	-25.84
849.568	58.13
849.739	86.8
849.909	70.42
850.08	0.79
850.25	39.7
850.421	-11.5
850.591	76.56
850.761	-11.5
850.932	17.17
851.102	-19.69
851.272	21.27
851.443	19.22
851.613	37.65
851.783	-36.08
851.954	8.98
852.124	-34.03
852.294	13.08
852.465	31.51
852.635	-17.64
852.805	4.88
852.975	70.42
853.145	27.41
853.316	21.27
853.486	-3.31
853.656	27.41
853.826	-3.31
853.996	8.98
854.166	33.56
854.337	64.27
854.507	-31.98
854.677	15.12
854.847	51.99
855.017	45.84
855.187	-23.79
855.357	39.7
855.527	78.61
855.697	-1.26
855.867	4.88
856.037	25.36
856.207	-5.36
856.377	23.32
856.547	19.22
856.717	39.7
856.887	-11.5
857.057	54.03
857.227	-40.17
857.397	-11.5
857.566	51.99
857.736	0.79
857.906	-1.26
858.076	49.94
858.246	60.18
858.416	94.99
858.585	94.99
858.755	62.23
858.925	49.94
859.095	-15.6
859.264	0.79
859.434	133.91
859.604	8.98
859.774	33.56
859.943	-36.08
860.113	45.84
860.283	45.84
860.452	13.08
860.622	25.36
860.791	-15.6
860.961	31.51
861.131	72.47
861.3	4.88
861.47	62.23
861.639	6.93
861.809	58.13
861.978	47.89
862.148	8.98
862.318	13.08
862.487	-36.08
862.657	6.93
862.826	-11.5
862.995	49.94
863.165	15.12
863.334	17.17
863.504	45.84
863.673	-27.88
863.843	13.08
864.012	74.51
864.181	-11.5
864.351	4.88
864.52	33.56
864.689	0.79
864.859	29.46
865.028	74.51
865.197	56.08
865.366	2.84
865.536	41.75
865.705	4.88
865.874	4.88
866.043	47.89
866.213	29.46
866.382	6.93
866.551	-23.79
866.72	25.36
866.889	-34.03
867.059	-40.17
867.228	72.47
867.397	54.03
867.566	17.17
867.735	21.27
867.904	15.12
868.073	29.46
868.242	33.56
868.411	15.12
868.58	37.65
868.749	29.46
868.918	4.88
869.087	-3.31
869.256	60.18
869.425	8.98
869.594	23.32
869.763	37.65
869.932	35.6
870.101	31.51
870.27	13.08
870.439	37.65
870.608	-31.98
870.777	33.56
870.945	-13.55
871.114	62.23
871.283	29.46
871.452	-19.69
871.621	78.61
871.789	-7.4
871.958	82.71
872.127	39.7
872.296	103.19
872.464	62.23
872.633	47.89
872.802	62.23
872.971	39.7
873.139	31.51
873.308	115.47
873.477	58.13
873.645	37.65
873.814	21.27
873.983	0.79
874.151	4.88
874.32	4.88
874.488	0.79
874.657	17.17
874.826	66.32
874.994	-9.45
875.163	17.17
875.331	-44.27
875.5	41.75
875.668	113.43
875.837	31.51
876.005	29.46
876.174	33.56
876.342	70.42
876.51	64.27
876.679	45.84
876.847	-19.69
877.016	66.32
877.184	-25.84
877.352	58.13
877.521	49.94
877.689	41.75
877.857	4.88
878.026	25.36
878.194	47.89
878.362	51.99
878.531	15.12
878.699	56.08
878.867	-29.93
879.036	6.93
879.204	29.46
879.372	64.27
879.54	6.93
879.708	76.56
879.877	72.47
880.045	62.23
880.213	-1.26
880.381	49.94
880.549	33.56
880.717	17.17
880.885	31.51
881.054	23.32
881.222	29.46
881.39	27.41
881.558	-54.51
881.726	31.51
881.894	11.03
882.062	39.7
882.23	-19.69
882.398	62.23
882.566	17.17
882.734	33.56
882.902	39.7
883.07	2.84
883.238	19.22
883.406	62.23
883.574	37.65
883.741	37.65
883.909	60.18
884.077	29.46
884.245	33.56
884.413	-52.46
884.581	0.79
884.749	45.84
884.916	-7.4
885.084	25.36
885.252	64.27
885.42	29.46
885.587	39.7
885.755	51.99
885.923	-11.5
886.091	82.71
886.258	35.6
886.426	78.61
886.594	-7.4
886.761	-17.64
886.929	105.23
887.097	4.88
887.264	15.12
887.432	31.51
887.6	64.27
887.767	6.93
887.935	45.84
888.102	33.56
888.27	49.94
888.438	21.27
888.605	45.84
888.773	72.47
888.94	39.7
889.108	17.17
889.275	33.56
889.443	92.95
889.61	60.18
889.778	15.12
889.945	76.56
890.112	64.27
890.28	90.9
890.447	58.13
890.615	15.12
890.782	0.79
890.949	-15.6
891.117	35.6
891.284	-3.31
891.452	86.8
891.619	29.46
891.786	-17.64
891.953	17.17
892.121	94.99
892.288	-3.31
892.455	17.17
892.623	29.46
892.79	-36.08
892.957	54.03
893.124	31.51
893.291	29.46
893.459	17.17
893.626	33.56
893.793	29.46
893.96	23.32
894.127	25.36
894.294	25.36
894.461	-9.45
894.629	8.98
894.796	23.32
894.963	39.7
895.13	37.65
895.297	-19.69
895.464	31.51
895.631	74.51
895.798	64.27
895.965	62.23
896.132	78.61
896.299	31.51
896.466	74.51
896.633	103.19
896.8	-7.4
896.967	-3.31
897.134	25.36
897.301	76.56
897.467	23.32
897.634	13.08
897.801	88.85
897.968	-1.26
898.135	62.23
898.302	-7.4
898.469	-3.31
898.635	-1.26
898.802	54.03
898.969	15.12
899.136	-34.03
899.303	56.08
