Data from dark_USB4E013581_00018.txt Node
Date: Wed May 08 15:05:46 EDT 2019
User: dh1006
Spectrometer: USB4E01358
Autoset integration time: false
Trigger mode: 4
Integration Time (sec): 2.925000E-2
Scans to average: 1
Electric dark correction enabled: true
Nonlinearity correction enabled: false
Boxcar width: 0
Stray light correction enabled: false
XAxis mode: Wavelengths
Stop averaging: false
Number of Pixels in Spectrum: 3648
>>>>>Begin Spectral Data<<<<<
176.727	-95.31
176.966	-95.31
177.205	-95.31
177.444	-56.4
177.683	-15.44
177.922	80.82
178.161	41.9
178.4	41.9
178.638	58.29
178.877	11.19
179.116	9.14
179.355	89.01
179.593	25.52
179.832	82.86
180.071	76.72
180.309	56.24
180.548	23.47
180.786	56.24
181.025	13.23
181.263	66.48
181.502	31.66
181.74	25.52
181.979	56.24
182.217	15.28
182.456	15.28
182.694	177.07
182.932	78.77
183.17	-37.97
183.409	37.81
183.647	-11.34
183.885	0.95
184.123	37.81
184.361	50.1
184.6	33.71
184.838	95.15
185.076	95.15
185.314	62.38
185.552	-21.58
185.79	-33.87
186.028	-19.53
186.266	23.47
186.503	2.99
186.741	48.05
186.979	25.52
187.217	50.1
187.455	72.62
187.693	-9.29
187.93	58.29
188.168	66.48
188.406	78.77
188.643	15.28
188.881	54.19
189.119	70.58
189.356	89.01
189.594	-15.44
189.831	95.15
190.069	80.82
190.306	-17.49
190.543	62.38
190.781	27.57
191.018	29.62
191.256	99.25
191.493	37.81
191.73	-48.21
191.967	25.52
192.205	70.58
192.442	-19.53
192.679	70.58
192.916	46
193.153	13.23
193.39	15.28
193.628	86.96
193.865	46
194.102	64.43
194.339	-11.34
194.576	5.04
194.813	78.77
195.049	9.14
195.286	17.33
195.523	-3.15
195.76	15.28
195.997	56.24
196.234	46
196.47	-33.87
196.707	78.77
196.944	70.58
197.18	5.04
197.417	-3.15
197.654	-11.34
197.89	0.95
198.127	25.52
198.363	5.04
198.6	91.06
198.836	-7.25
199.073	31.66
199.309	115.63
199.546	74.67
199.782	25.52
200.018	-23.63
200.255	54.19
200.491	86.96
200.727	21.42
200.963	58.29
201.199	41.9
201.436	17.33
201.672	37.81
201.908	95.15
202.144	-52.3
202.38	43.95
202.616	39.86
202.852	37.81
203.088	17.33
203.324	84.91
203.56	23.47
203.796	78.77
204.032	66.48
204.268	50.1
204.503	-1.1
204.739	-35.92
204.975	29.62
205.211	5.04
205.446	111.54
205.682	70.58
205.918	89.01
206.153	23.47
206.389	62.38
206.625	7.09
206.86	52.14
207.096	35.76
207.331	-17.49
207.567	54.19
207.802	37.81
208.037	66.48
208.273	50.1
208.508	-40.01
208.744	15.28
208.979	-66.64
209.214	33.71
209.449	41.9
209.685	-1.1
209.92	41.9
210.155	39.86
210.39	7.09
210.625	23.47
210.86	-35.92
211.095	13.23
211.33	72.62
211.565	19.38
211.8	138.16
212.035	25.52
212.27	-56.4
212.505	0.95
212.74	-66.64
212.975	-1.1
213.21	54.19
213.444	23.47
213.679	64.43
213.914	37.81
214.149	5.04
214.383	25.52
214.618	41.9
214.853	54.19
215.087	115.63
215.322	46
215.556	5.04
215.791	31.66
216.025	-11.34
216.26	72.62
216.494	70.58
216.729	64.43
216.963	66.48
217.197	31.66
217.432	39.86
217.666	76.72
217.9	99.25
218.135	-40.01
218.369	129.97
218.603	-1.1
218.837	41.9
219.071	-11.34
219.306	-23.63
219.54	50.1
219.774	144.3
220.008	95.15
220.242	21.42
220.476	-5.2
220.71	54.19
220.944	78.77
221.178	7.09
221.411	25.52
221.645	7.09
221.879	17.33
222.113	5.04
222.347	23.47
222.58	-7.25
222.814	33.71
223.048	21.42
223.281	21.42
223.515	33.71
223.749	39.86
223.982	21.42
224.216	21.42
224.449	107.44
224.683	-35.92
224.916	54.19
225.15	54.19
225.383	95.15
225.617	62.38
225.85	35.76
226.083	56.24
226.317	37.81
226.55	-68.69
226.783	56.24
227.016	21.42
227.25	23.47
227.483	31.66
227.716	54.19
227.949	-25.68
228.182	-70.73
228.415	37.81
228.648	50.1
228.881	-7.25
229.114	78.77
229.347	113.58
229.58	-9.29
229.813	25.52
230.046	-19.53
230.279	21.42
230.512	-40.01
230.745	46
230.977	37.81
231.21	136.11
231.443	37.81
231.675	15.28
231.908	17.33
232.141	-64.59
232.373	21.42
232.606	29.62
232.839	25.52
233.071	56.24
233.304	31.66
233.536	31.66
233.769	86.96
234.001	37.81
234.233	78.77
234.466	37.81
234.698	13.23
234.93	31.66
235.163	29.62
235.395	-15.44
235.627	70.58
235.86	82.86
236.092	50.1
236.324	62.38
236.556	78.77
236.788	9.14
237.02	56.24
237.252	21.42
237.484	29.62
237.716	25.52
237.948	39.86
238.18	58.29
238.412	64.43
238.644	62.38
238.876	70.58
239.108	13.23
239.34	17.33
239.571	43.95
239.803	5.04
240.035	41.9
240.267	39.86
240.498	17.33
240.73	31.66
240.962	7.09
241.193	54.19
241.425	25.52
241.656	74.67
241.888	37.81
242.119	-11.34
242.351	19.38
242.582	97.2
242.814	-17.49
243.045	31.66
243.277	-60.49
243.508	29.62
243.739	15.28
243.971	29.62
244.202	-23.63
244.433	39.86
244.664	-23.63
244.896	-25.68
245.127	2.99
245.358	64.43
245.589	86.96
245.82	50.1
246.051	68.53
246.282	82.86
246.513	89.01
246.744	29.62
246.975	-15.44
247.206	54.19
247.437	93.1
247.668	72.62
247.899	23.47
248.129	52.14
248.36	50.1
248.591	19.38
248.822	-7.25
249.052	41.9
249.283	41.9
249.514	21.42
249.744	37.81
249.975	56.24
250.206	-9.29
250.436	29.62
250.667	86.96
250.897	21.42
251.128	17.33
251.358	13.23
251.589	-23.63
251.819	5.04
252.049	46
252.28	95.15
252.51	31.66
252.74	13.23
252.971	-1.1
253.201	50.1
253.431	33.71
253.661	89.01
253.891	-1.1
254.121	-68.69
254.352	78.77
254.582	5.04
254.812	33.71
255.042	41.9
255.272	46
255.502	17.33
255.732	11.19
255.962	35.76
256.192	-17.49
256.421	48.05
256.651	13.23
256.881	72.62
257.111	21.42
257.341	-19.53
257.57	17.33
257.8	29.62
258.03	48.05
258.259	62.38
258.489	56.24
258.719	56.24
258.948	27.57
259.178	64.43
259.407	50.1
259.637	66.48
259.866	-52.3
260.096	-25.68
260.325	46
260.555	89.01
260.784	31.66
261.013	37.81
261.243	54.19
261.472	33.71
261.701	29.62
261.931	31.66
262.16	19.38
262.389	80.82
262.618	-27.73
262.847	21.42
263.076	-35.92
263.305	46
263.535	7.09
263.764	80.82
263.993	-15.44
264.222	31.66
264.451	58.29
264.679	-60.49
264.908	23.47
265.137	-9.29
265.366	74.67
265.595	107.44
265.824	9.14
266.053	11.19
266.281	29.62
266.51	5.04
266.739	91.06
266.967	27.57
267.196	76.72
267.425	25.52
267.653	-60.49
267.882	-60.49
268.11	15.28
268.339	80.82
268.567	-11.34
268.796	46
269.024	48.05
269.253	35.76
269.481	37.81
269.709	2.99
269.938	50.1
270.166	-15.44
270.394	-9.29
270.623	-21.58
270.851	66.48
271.079	33.71
271.307	46
271.535	-7.25
271.764	-15.44
271.992	46
272.22	-15.44
272.448	78.77
272.676	0.95
272.904	13.23
273.132	-11.34
273.36	15.28
273.588	78.77
273.816	54.19
274.043	0.95
274.271	37.81
274.499	-15.44
274.727	91.06
274.955	13.23
275.182	74.67
275.41	66.48
275.638	-17.49
275.866	13.23
276.093	72.62
276.321	89.01
276.548	17.33
276.776	56.24
277.003	21.42
277.231	66.48
277.458	48.05
277.686	5.04
277.913	64.43
278.141	-27.73
278.368	13.23
278.595	-3.15
278.823	29.62
279.05	136.11
279.277	58.29
279.505	29.62
279.732	13.23
279.959	-35.92
280.186	-7.25
280.413	39.86
280.641	-27.73
280.868	41.9
281.095	48.05
281.322	5.04
281.549	9.14
281.776	70.58
282.003	-17.49
282.23	68.53
282.457	148.4
282.683	-33.87
282.91	13.23
283.137	-31.82
283.364	97.2
283.591	31.66
283.818	13.23
284.044	29.62
284.271	41.9
284.498	58.29
284.724	48.05
284.951	29.62
285.178	-44.11
285.404	-9.29
285.631	-25.68
285.857	103.34
286.084	29.62
286.31	64.43
286.537	-3.15
286.763	39.86
286.99	9.14
287.216	23.47
287.442	50.1
287.669	-1.1
287.895	7.09
288.121	-17.49
288.347	-33.87
288.574	7.09
288.8	35.76
289.026	9.14
289.252	31.66
289.478	5.04
289.704	33.71
289.931	-23.63
290.157	113.58
290.383	29.62
290.609	33.71
290.835	89.01
291.06	17.33
291.286	27.57
291.512	43.95
291.738	58.29
291.964	60.34
292.19	-29.77
292.416	31.66
292.641	-15.44
292.867	15.28
293.093	29.62
293.319	-3.15
293.544	-76.88
293.77	0.95
293.995	33.71
294.221	-11.34
294.447	21.42
294.672	80.82
294.898	46
295.123	5.04
295.349	58.29
295.574	48.05
295.799	17.33
296.025	66.48
296.25	9.14
296.476	11.19
296.701	78.77
296.926	13.23
297.151	-3.15
297.377	62.38
297.602	-3.15
297.827	37.81
298.052	21.42
298.277	25.52
298.502	0.95
298.727	9.14
298.953	-3.15
299.178	13.23
299.403	0.95
299.628	56.24
299.852	-1.1
300.077	-3.15
300.302	-1.1
300.527	-44.11
300.752	-5.2
300.977	129.97
301.202	-31.82
301.426	97.2
301.651	17.33
301.876	29.62
302.101	-9.29
302.325	80.82
302.55	13.23
302.775	39.86
302.999	-19.53
303.224	64.43
303.448	46
303.673	78.77
303.897	21.42
304.122	7.09
304.346	5.04
304.571	13.23
304.795	25.52
305.019	31.66
305.244	-3.15
305.468	70.58
305.692	-40.01
305.917	54.19
306.141	31.66
306.365	23.47
306.589	-1.1
306.813	58.29
307.038	21.42
307.262	-5.2
307.486	-17.49
307.71	33.71
307.934	17.33
308.158	39.86
308.382	41.9
308.606	70.58
308.83	-5.2
309.054	52.14
309.278	0.95
309.502	33.71
309.725	48.05
309.949	46
310.173	29.62
310.397	-7.25
310.62	-97.36
310.844	37.81
311.068	70.58
311.292	33.71
311.515	54.19
311.739	25.52
311.962	33.71
312.186	31.66
312.41	41.9
312.633	91.06
312.857	15.28
313.08	56.24
313.303	-17.49
313.527	48.05
313.75	62.38
313.974	29.62
314.197	54.19
314.42	-3.15
314.644	48.05
314.867	97.2
315.09	33.71
315.313	86.96
315.536	13.23
315.76	5.04
315.983	64.43
316.206	68.53
316.429	17.33
316.652	101.3
316.875	-3.15
317.098	50.1
317.321	35.76
317.544	37.81
317.767	5.04
317.99	37.81
318.213	-3.15
318.436	56.24
318.658	11.19
318.881	58.29
319.104	37.81
319.327	-15.44
319.55	0.95
319.772	17.33
319.995	13.23
320.218	29.62
320.44	19.38
320.663	15.28
320.885	37.81
321.108	78.77
321.331	-9.29
321.553	82.86
321.776	-3.15
321.998	21.42
322.22	76.72
322.443	78.77
322.665	27.57
322.888	105.39
323.11	7.09
323.332	-5.2
323.555	13.23
323.777	54.19
323.999	-1.1
324.221	13.23
324.443	-50.25
324.666	46
324.888	46
325.11	54.19
325.332	7.09
325.554	50.1
325.776	33.71
325.998	89.01
326.22	-11.34
326.442	62.38
326.664	39.86
326.886	52.14
327.108	27.57
327.33	-7.25
327.551	9.14
327.773	62.38
327.995	50.1
328.217	-68.69
328.439	74.67
328.66	64.43
328.882	-27.73
329.104	70.58
329.325	23.47
329.547	5.04
329.769	-44.11
329.99	70.58
330.212	7.09
330.433	25.52
330.655	5.04
330.876	54.19
331.098	15.28
331.319	46
331.54	-21.58
331.762	86.96
331.983	107.44
332.204	21.42
332.426	-9.29
332.647	35.76
332.868	17.33
333.089	-27.73
333.311	64.43
333.532	78.77
333.753	93.1
333.974	54.19
334.195	13.23
334.416	31.66
334.637	5.04
334.858	31.66
335.079	41.9
335.3	23.47
335.521	25.52
335.742	72.62
335.963	107.44
336.184	46
336.405	29.62
336.626	23.47
336.846	-35.92
337.067	-9.29
337.288	33.71
337.509	-27.73
337.729	5.04
337.95	31.66
338.171	21.42
338.391	13.23
338.612	132.02
338.833	37.81
339.053	15.28
339.274	7.09
339.494	62.38
339.715	39.86
339.935	-17.49
340.156	-1.1
340.376	74.67
340.596	39.86
340.817	46
341.037	25.52
341.257	-11.34
341.478	82.86
341.698	29.62
341.918	64.43
342.138	-27.73
342.359	17.33
342.579	33.71
342.799	29.62
343.019	62.38
343.239	48.05
343.459	21.42
343.679	31.66
343.899	-35.92
344.119	46
344.339	-25.68
344.559	17.33
344.779	-19.53
344.999	84.91
345.219	5.04
345.439	121.78
345.658	46
345.878	54.19
346.098	50.1
346.318	17.33
346.537	99.25
346.757	-11.34
346.977	-52.3
347.196	7.09
347.416	29.62
347.636	68.53
347.855	66.48
348.075	23.47
348.294	148.4
348.514	29.62
348.733	117.68
348.953	9.14
349.172	56.24
349.392	-19.53
349.611	72.62
349.83	46
350.05	35.76
350.269	70.58
350.488	37.81
350.707	31.66
350.927	35.76
351.146	33.71
351.365	27.57
351.584	76.72
351.803	72.62
352.023	29.62
352.242	21.42
352.461	46
352.68	13.23
352.899	91.06
353.118	58.29
353.337	-7.25
353.556	23.47
353.775	39.86
353.993	-9.29
354.212	29.62
354.431	68.53
354.65	39.86
354.869	37.81
355.088	39.86
355.306	7.09
355.525	-25.68
355.744	7.09
355.962	86.96
356.181	74.67
356.4	48.05
356.618	29.62
356.837	17.33
357.055	-44.11
357.274	13.23
357.492	31.66
357.711	13.23
357.929	2.99
358.148	-9.29
358.366	74.67
358.585	-9.29
358.803	13.23
359.021	121.78
359.24	64.43
359.458	-58.45
359.676	23.47
359.894	56.24
360.113	15.28
360.331	41.9
360.549	13.23
360.767	-35.92
360.985	-17.49
361.203	62.38
361.421	-17.49
361.639	68.53
361.857	33.71
362.075	103.34
362.293	17.33
362.511	54.19
362.729	48.05
362.947	58.29
363.165	15.28
363.383	23.47
363.601	54.19
363.819	95.15
364.036	-1.1
364.254	-7.25
364.472	48.05
364.689	13.23
364.907	46
365.125	-3.15
365.342	23.47
365.56	-3.15
365.778	33.71
365.995	66.48
366.213	25.52
366.43	-23.63
366.648	21.42
366.865	46
367.083	91.06
367.3	119.73
367.517	99.25
367.735	37.81
367.952	-27.73
368.17	0.95
368.387	62.38
368.604	54.19
368.821	2.99
369.039	29.62
369.256	-21.58
369.473	17.33
369.69	82.86
369.907	62.38
370.124	52.14
370.341	-33.87
370.558	-7.25
370.776	97.2
370.993	5.04
371.21	17.33
371.426	29.62
371.643	-1.1
371.86	29.62
372.077	37.81
372.294	11.19
372.511	41.9
372.728	33.71
372.945	46
373.161	21.42
373.378	-11.34
373.595	27.57
373.811	-19.53
374.028	54.19
374.245	97.2
374.461	-11.34
374.678	80.82
374.895	27.57
375.111	5.04
375.328	-37.97
375.544	13.23
375.761	17.33
375.977	54.19
376.194	39.86
376.41	48.05
376.626	23.47
376.843	-25.68
377.059	21.42
377.275	39.86
377.492	27.57
377.708	46
377.924	70.58
378.14	-3.15
378.357	46
378.573	31.66
378.789	-66.64
379.005	58.29
379.221	29.62
379.437	25.52
379.653	31.66
379.869	23.47
380.085	0.95
380.301	62.38
380.517	43.95
380.733	25.52
380.949	19.38
381.165	37.81
381.381	41.9
381.597	17.33
381.813	9.14
382.028	62.38
382.244	37.81
382.46	29.62
382.676	64.43
382.891	-9.29
383.107	-17.49
383.323	123.82
383.538	25.52
383.754	62.38
383.969	-5.2
384.185	70.58
384.4	58.29
384.616	103.34
384.831	17.33
385.047	-27.73
385.262	17.33
385.478	41.9
385.693	31.66
385.909	-66.64
386.124	64.43
386.339	46
386.554	-23.63
386.77	23.47
386.985	11.19
387.2	29.62
387.415	5.04
387.631	70.58
387.846	-17.49
388.061	101.3
388.276	43.95
388.491	-3.15
388.706	72.62
388.921	9.14
389.136	48.05
389.351	78.77
389.566	62.38
389.781	-3.15
389.996	74.67
390.211	37.81
390.426	46
390.641	64.43
390.855	23.47
391.07	-44.11
391.285	76.72
391.5	-9.29
391.714	70.58
391.929	64.43
392.144	86.96
392.358	54.19
392.573	58.29
392.788	-17.49
393.002	-40.01
393.217	54.19
393.431	7.09
393.646	-3.15
393.86	62.38
394.075	37.81
394.289	9.14
394.504	29.62
394.718	62.38
394.933	89.01
395.147	39.86
395.361	-9.29
395.576	-3.15
395.79	17.33
396.004	-19.53
396.218	86.96
396.432	62.38
396.647	41.9
396.861	-11.34
397.075	23.47
397.289	74.67
397.503	-35.92
397.717	5.04
397.931	50.1
398.145	19.38
398.359	48.05
398.573	95.15
398.787	-3.15
399.001	64.43
399.215	60.34
399.429	54.19
399.643	50.1
399.857	89.01
400.07	113.58
400.284	35.76
400.498	62.38
400.712	-35.92
400.925	29.62
401.139	-3.15
401.353	-13.39
401.566	134.06
401.78	72.62
401.994	31.66
402.207	-1.1
402.421	95.15
402.634	78.77
402.848	54.19
403.061	-7.25
403.275	-19.53
403.488	74.67
403.702	-9.29
403.915	68.53
404.128	9.14
404.342	17.33
404.555	52.14
404.768	-3.15
404.982	-23.63
405.195	70.58
405.408	15.28
405.621	115.63
405.835	62.38
406.048	5.04
406.261	46
406.474	-15.44
406.687	5.04
406.9	-13.39
407.113	5.04
407.326	29.62
407.539	-3.15
407.752	13.23
407.965	9.14
408.178	66.48
408.391	15.28
408.604	37.81
408.817	5.04
409.029	21.42
409.242	46
409.455	-25.68
409.668	46
409.881	31.66
410.093	66.48
410.306	21.42
410.519	62.38
410.731	33.71
410.944	29.62
411.157	-7.25
411.369	35.76
411.582	72.62
411.794	43.95
412.007	74.67
412.219	78.77
412.432	76.72
412.644	41.9
412.857	48.05
413.069	62.38
413.281	78.77
413.494	80.82
413.706	103.34
413.918	13.23
414.131	125.87
414.343	13.23
414.555	-3.15
414.767	-19.53
414.979	0.95
415.192	37.81
415.404	37.81
415.616	-1.1
415.828	37.81
416.04	43.95
416.252	48.05
416.464	-58.45
416.676	5.04
416.888	-1.1
417.1	7.09
417.312	39.86
417.524	136.11
417.736	-3.15
417.948	5.04
418.159	107.44
418.371	-27.73
418.583	35.76
418.795	29.62
419.007	0.95
419.218	58.29
419.43	13.23
419.642	54.19
419.853	64.43
420.065	-3.15
420.276	46
420.488	15.28
420.7	29.62
420.911	-17.49
421.123	25.52
421.334	29.62
421.546	54.19
421.757	-3.15
421.969	-17.49
422.18	80.82
422.391	-44.11
422.603	31.66
422.814	54.19
423.025	74.67
423.237	39.86
423.448	2.99
423.659	62.38
423.87	-42.06
424.082	-17.49
424.293	33.71
424.504	70.58
424.715	29.62
424.926	41.9
425.137	56.24
425.348	9.14
425.559	62.38
425.77	-17.49
425.981	48.05
426.192	19.38
426.403	25.52
426.614	72.62
426.825	41.9
427.036	50.1
427.247	37.81
427.458	62.38
427.668	-27.73
427.879	-5.2
428.09	48.05
428.301	58.29
428.511	33.71
428.722	64.43
428.933	37.81
429.143	50.1
429.354	21.42
429.565	39.86
429.775	33.71
429.986	5.04
430.196	-3.15
430.407	46
430.617	31.66
430.828	-27.73
431.038	29.62
431.249	-3.15
431.459	78.77
431.669	-21.58
431.88	64.43
432.09	76.72
432.3	27.57
432.511	111.54
432.721	113.58
432.931	82.86
433.141	86.96
433.351	86.96
433.562	115.63
433.772	-58.45
433.982	-11.34
434.192	-31.82
434.402	25.52
434.612	17.33
434.822	54.19
435.032	-1.1
435.242	95.15
435.452	29.62
435.662	23.47
435.872	-15.44
436.082	29.62
436.292	101.3
436.502	19.38
436.711	74.67
436.921	-17.49
437.131	5.04
437.341	5.04
437.551	-44.11
437.76	11.19
437.97	46
438.18	-21.58
438.389	86.96
438.599	99.25
438.808	21.42
439.018	29.62
439.228	46
439.437	29.62
439.647	19.38
439.856	95.15
440.066	-15.44
440.275	37.81
440.484	46
440.694	37.81
440.903	13.23
441.113	39.86
441.322	43.95
441.531	39.86
441.741	31.66
441.95	41.9
442.159	-27.73
442.368	37.81
442.577	62.38
442.787	29.62
442.996	-17.49
443.205	9.14
443.414	70.58
443.623	78.77
443.832	66.48
444.041	54.19
444.25	-33.87
444.459	21.42
444.668	-33.87
444.877	29.62
445.086	70.58
445.295	29.62
445.504	-15.44
445.713	72.62
445.922	39.86
446.13	62.38
446.339	62.38
446.548	86.96
446.757	-27.73
446.965	19.38
447.174	33.71
447.383	5.04
447.591	-33.87
447.8	39.86
448.009	54.19
448.217	23.47
448.426	-17.49
448.634	58.29
448.843	-15.44
449.051	-48.21
449.26	25.52
449.468	13.23
449.677	19.38
449.885	37.81
450.093	-29.77
450.302	46
450.51	25.52
450.719	9.14
450.927	39.86
451.135	21.42
451.343	-44.11
451.552	54.19
451.76	25.52
451.968	23.47
452.176	5.04
452.384	-1.1
452.592	58.29
452.8	86.96
453.009	54.19
453.217	-44.11
453.425	11.19
453.633	54.19
453.841	41.9
454.049	78.77
454.257	19.38
454.464	13.23
454.672	46
454.88	52.14
455.088	-29.77
455.296	78.77
455.504	25.52
455.711	0.95
455.919	-31.82
456.127	13.23
456.335	0.95
456.542	70.58
456.75	64.43
456.958	48.05
457.165	74.67
457.373	52.14
457.581	29.62
457.788	56.24
457.996	25.52
458.203	-48.21
458.411	-15.44
458.618	29.62
458.826	41.9
459.033	123.82
459.24	48.05
459.448	33.71
459.655	-11.34
459.863	27.57
460.07	29.62
460.277	66.48
460.484	119.73
460.692	13.23
460.899	70.58
461.106	56.24
461.313	125.87
461.52	78.77
461.728	62.38
461.935	66.48
462.142	35.76
462.349	-31.82
462.556	46
462.763	-19.53
462.97	31.66
463.177	31.66
463.384	0.95
463.591	5.04
463.798	7.09
464.005	46
464.212	13.23
464.418	-35.92
464.625	-27.73
464.832	-17.49
465.039	11.19
465.246	0.95
465.452	46
465.659	78.77
465.866	64.43
466.072	5.04
466.279	78.77
466.486	86.96
466.692	17.33
466.899	-19.53
467.105	-44.11
467.312	62.38
467.519	-3.15
467.725	29.62
467.931	103.34
468.138	9.14
468.344	33.71
468.551	5.04
468.757	-52.3
468.964	-27.73
469.17	-40.01
469.376	82.86
469.583	33.71
469.789	-7.25
469.995	-27.73
470.201	13.23
470.408	-23.63
470.614	50.1
470.82	46
471.026	54.19
471.232	54.19
471.438	37.81
471.644	17.33
471.85	56.24
472.056	70.58
472.262	9.14
472.468	13.23
472.674	-7.25
472.88	25.52
473.086	74.67
473.292	33.71
473.498	-23.63
473.704	21.42
473.91	-33.87
474.116	72.62
474.321	25.52
474.527	29.62
474.733	-60.49
474.939	29.62
475.144	54.19
475.35	13.23
475.556	37.81
475.761	-3.15
475.967	19.38
476.173	70.58
476.378	15.28
476.584	13.23
476.789	5.04
476.995	-99.41
477.2	62.38
477.406	84.91
477.611	56.24
477.817	54.19
478.022	43.95
478.227	19.38
478.433	21.42
478.638	17.33
478.843	95.15
479.049	-3.15
479.254	168.88
479.459	37.81
479.664	48.05
479.87	29.62
480.075	15.28
480.28	80.82
480.485	21.42
480.69	-19.53
480.895	5.04
481.1	21.42
481.306	9.14
481.511	31.66
481.716	62.38
481.921	46
482.126	0.95
482.33	-15.44
482.535	37.81
482.74	-7.25
482.945	2.99
483.15	113.58
483.355	15.28
483.56	31.66
483.765	48.05
483.969	72.62
484.174	72.62
484.379	27.57
484.583	-31.82
484.788	23.47
484.993	107.44
485.197	-35.92
485.402	21.42
485.607	-11.34
485.811	37.81
486.016	-23.63
486.22	-46.16
486.425	48.05
486.629	74.67
486.834	62.38
487.038	46
487.243	58.29
487.447	0.95
487.652	-15.44
487.856	62.38
488.06	13.23
488.265	-27.73
488.469	54.19
488.673	9.14
488.877	-13.39
489.082	7.09
489.286	70.58
489.49	50.1
489.694	25.52
489.898	21.42
490.102	66.48
490.307	25.52
490.511	-13.39
490.715	66.48
490.919	-56.4
491.123	-60.49
491.327	7.09
491.531	-23.63
491.735	58.29
491.939	15.28
492.143	54.19
492.346	62.38
492.55	33.71
492.754	74.67
492.958	-15.44
493.162	46
493.366	31.66
493.569	17.33
493.773	37.81
493.977	70.58
494.18	27.57
494.384	48.05
494.588	115.63
494.791	9.14
494.995	-11.34
495.199	43.95
495.402	95.15
495.606	-27.73
495.809	-17.49
496.013	21.42
496.216	62.38
496.42	-35.92
496.623	27.57
496.827	58.29
497.03	33.71
497.233	-3.15
497.437	17.33
497.64	5.04
497.843	70.58
498.047	62.38
498.25	33.71
498.453	33.71
498.656	15.28
498.86	46
499.063	62.38
499.266	21.42
499.469	50.1
499.672	29.62
499.875	0.95
500.078	15.28
500.281	-7.25
500.484	-3.15
500.687	13.23
500.89	-35.92
501.093	-11.34
501.296	5.04
501.499	17.33
501.702	13.23
501.905	17.33
502.108	15.28
502.311	-19.53
502.514	-21.58
502.716	-21.58
502.919	62.38
503.122	97.2
503.325	127.92
503.527	56.24
503.73	17.33
503.933	58.29
504.135	25.52
504.338	21.42
504.541	21.42
504.743	111.54
504.946	89.01
505.148	9.14
505.351	11.19
505.553	31.66
505.756	46
505.958	-27.73
506.161	66.48
506.363	54.19
506.565	27.57
506.768	62.38
506.97	39.86
507.172	37.81
507.375	46
507.577	62.38
507.779	95.15
507.982	60.34
508.184	13.23
508.386	37.81
508.588	54.19
508.79	37.81
508.993	54.19
509.195	-19.53
509.397	37.81
509.599	-19.53
509.801	-1.1
510.003	0.95
510.205	-19.53
510.407	-56.4
510.609	33.71
510.811	54.19
511.013	80.82
511.215	35.76
511.417	35.76
511.618	7.09
511.82	17.33
512.022	33.71
512.224	89.01
512.426	62.38
512.627	-76.88
512.829	46
513.031	54.19
513.233	-7.25
513.434	21.42
513.636	25.52
513.838	-44.11
514.039	-25.68
514.241	50.1
514.442	70.58
514.644	70.58
514.845	0.95
515.047	33.71
515.248	89.01
515.45	-37.97
515.651	78.77
515.853	5.04
516.054	9.14
516.256	93.1
516.457	-3.15
516.658	0.95
516.86	-17.49
517.061	29.62
517.262	29.62
517.463	58.29
517.665	95.15
517.866	82.86
518.067	43.95
518.268	33.71
518.469	-11.34
518.67	62.38
518.872	11.19
519.073	52.14
519.274	-17.49
519.475	-7.25
519.676	13.23
519.877	5.04
520.078	39.86
520.279	41.9
520.48	46
520.681	13.23
520.881	21.42
521.082	13.23
521.283	21.42
521.484	-37.97
521.685	48.05
521.886	37.81
522.086	29.62
522.287	48.05
522.488	-31.82
522.689	-3.15
522.889	33.71
523.09	46
523.291	23.47
523.491	19.38
523.692	-66.64
523.892	41.9
524.093	41.9
524.294	-25.68
524.494	31.66
524.695	25.52
524.895	37.81
525.096	5.04
525.296	-17.49
525.496	50.1
525.697	2.99
525.897	-9.29
526.098	76.72
526.298	37.81
526.498	43.95
526.699	13.23
526.899	-3.15
527.099	78.77
527.299	29.62
527.499	33.71
527.7	-31.82
527.9	76.72
528.1	54.19
528.3	15.28
528.5	60.34
528.7	23.47
528.9	52.14
529.1	41.9
529.3	66.48
529.5	41.9
529.7	89.01
529.9	5.04
530.1	68.53
530.3	86.96
530.5	-48.21
530.7	9.14
530.9	74.67
531.1	-1.1
531.3	89.01
531.499	54.19
531.699	-52.3
531.899	29.62
532.099	19.38
532.298	37.81
532.498	62.38
532.698	-44.11
532.897	21.42
533.097	86.96
533.297	43.95
533.496	46
533.696	41.9
533.895	70.58
534.095	64.43
534.294	33.71
534.494	80.82
534.693	29.62
534.893	-19.53
535.092	7.09
535.292	-7.25
535.491	9.14
535.69	2.99
535.89	48.05
536.089	13.23
536.288	-15.44
536.488	56.24
536.687	54.19
536.886	60.34
537.085	15.28
537.285	-15.44
537.484	62.38
537.683	15.28
537.882	52.14
538.081	86.96
538.28	-3.15
538.479	-44.11
538.678	-7.25
538.877	21.42
539.076	13.23
539.275	-76.88
539.474	43.95
539.673	35.76
539.872	-13.39
540.071	33.71
540.27	37.81
540.469	54.19
540.668	-52.3
540.867	13.23
541.065	17.33
541.264	111.54
541.463	48.05
541.662	-13.39
541.861	95.15
542.059	54.19
542.258	78.77
542.457	-1.1
542.655	58.29
542.854	-7.25
543.052	-19.53
543.251	-27.73
543.45	84.91
543.648	-35.92
543.847	70.58
544.045	72.62
544.244	25.52
544.442	62.38
544.641	23.47
544.839	-68.69
545.037	37.81
545.236	-11.34
545.434	70.58
545.632	-11.34
545.831	105.39
546.029	54.19
546.227	21.42
546.426	-17.49
546.624	39.86
546.822	64.43
547.02	-11.34
547.218	29.62
547.417	5.04
547.615	17.33
547.813	33.71
548.011	5.04
548.209	-44.11
548.407	17.33
548.605	15.28
548.803	37.81
549.001	-33.87
549.199	5.04
549.397	9.14
549.595	43.95
549.793	9.14
549.991	80.82
550.189	56.24
550.387	21.42
550.584	86.96
550.782	21.42
550.98	9.14
551.178	31.66
551.376	89.01
551.573	46
551.771	-11.34
551.969	37.81
552.166	37.81
552.364	-27.73
552.562	29.62
552.759	-29.77
552.957	111.54
553.154	56.24
553.352	86.96
553.55	-17.49
553.747	60.34
553.945	25.52
554.142	70.58
554.339	50.1
554.537	9.14
554.734	9.14
554.932	-35.92
555.129	21.42
555.326	-21.58
555.524	46
555.721	86.96
555.918	95.15
556.116	-35.92
556.313	-1.1
556.51	25.52
556.707	54.19
556.904	58.29
557.102	7.09
557.299	54.19
557.496	13.23
557.693	23.47
557.89	-1.1
558.087	78.77
558.284	-3.15
558.481	46
558.678	82.86
558.875	62.38
559.072	-1.1
559.269	68.53
559.466	37.81
559.663	31.66
559.86	78.77
560.057	29.62
560.254	-19.53
560.45	111.54
560.647	54.19
560.844	-52.3
561.041	-31.82
561.237	31.66
561.434	37.81
561.631	43.95
561.828	39.86
562.024	-37.97
562.221	56.24
562.418	62.38
562.614	64.43
562.811	103.34
563.007	70.58
563.204	113.58
563.4	84.91
563.597	48.05
563.793	74.67
563.99	9.14
564.186	0.95
564.383	37.81
564.579	-27.73
564.775	95.15
564.972	21.42
565.168	78.77
565.365	66.48
565.561	2.99
565.757	66.48
565.953	17.33
566.15	5.04
566.346	29.62
566.542	74.67
566.738	95.15
566.934	-1.1
567.131	66.48
567.327	-7.25
567.523	13.23
567.719	13.23
567.915	-19.53
568.111	23.47
568.307	9.14
568.503	9.14
568.699	29.62
568.895	-9.29
569.091	127.92
569.287	7.09
569.483	29.62
569.679	54.19
569.875	84.91
570.07	-68.69
570.266	82.86
570.462	80.82
570.658	29.62
570.854	7.09
571.049	-35.92
571.245	62.38
571.441	111.54
571.636	23.47
571.832	58.29
572.028	66.48
572.223	54.19
572.419	91.06
572.615	37.81
572.81	50.1
573.006	89.01
573.201	7.09
573.397	91.06
573.592	-3.15
573.788	35.76
573.983	97.2
574.179	86.96
574.374	82.86
574.569	25.52
574.765	-42.06
574.96	5.04
575.156	-7.25
575.351	-11.34
575.546	58.29
575.741	-11.34
575.937	-17.49
576.132	19.38
576.327	39.86
576.522	74.67
576.718	74.67
576.913	56.24
577.108	62.38
577.303	-3.15
577.498	56.24
577.693	13.23
577.888	-1.1
578.083	86.96
578.278	46
578.473	-3.15
578.668	70.58
578.863	-23.63
579.058	25.52
579.253	62.38
579.448	7.09
579.643	13.23
579.838	-19.53
580.033	25.52
580.227	2.99
580.422	46
580.617	-3.15
580.812	-1.1
581.006	58.29
581.201	144.3
581.396	54.19
581.591	58.29
581.785	5.04
581.98	11.19
582.175	-3.15
582.369	-27.73
582.564	48.05
582.758	37.81
582.953	-42.06
583.147	21.42
583.342	56.24
583.536	-42.06
583.731	54.19
583.925	15.28
584.12	-42.06
584.314	78.77
584.509	17.33
584.703	25.52
584.897	13.23
585.092	-11.34
585.286	-1.1
585.48	78.77
585.674	66.48
585.869	25.52
586.063	5.04
586.257	39.86
586.451	11.19
586.646	46
586.84	0.95
587.034	-15.44
587.228	-27.73
587.422	115.63
587.616	5.04
587.81	58.29
588.004	29.62
588.198	31.66
588.392	56.24
588.586	46
588.78	-19.53
588.974	21.42
589.168	9.14
589.362	50.1
589.556	29.62
589.75	5.04
589.944	-40.01
590.137	31.66
590.331	52.14
590.525	5.04
590.719	37.81
590.913	-7.25
591.106	48.05
591.3	29.62
591.494	25.52
591.687	43.95
591.881	39.86
592.075	21.42
592.268	17.33
592.462	15.28
592.655	23.47
592.849	-56.4
593.043	62.38
593.236	19.38
593.43	31.66
593.623	66.48
593.817	-13.39
594.01	103.34
594.203	-64.59
594.397	13.23
594.59	-3.15
594.784	56.24
594.977	-3.15
595.17	39.86
595.364	41.9
595.557	27.57
595.75	31.66
595.943	0.95
596.137	21.42
596.33	37.81
596.523	11.19
596.716	5.04
596.909	115.63
597.102	-27.73
597.296	17.33
597.489	0.95
597.682	41.9
597.875	5.04
598.068	33.71
598.261	70.58
598.454	56.24
598.647	-23.63
598.84	23.47
599.033	68.53
599.226	13.23
599.419	54.19
599.611	31.66
599.804	46
599.997	-1.1
600.19	17.33
600.383	-7.25
600.576	29.62
600.768	56.24
600.961	39.86
601.154	58.29
601.347	46
601.539	-3.15
601.732	-60.49
601.925	-19.53
602.117	37.81
602.31	78.77
602.502	9.14
602.695	64.43
602.888	54.19
603.08	70.58
603.273	23.47
603.465	13.23
603.658	35.76
603.85	91.06
604.043	50.1
604.235	15.28
604.427	-56.4
604.62	50.1
604.812	29.62
605.004	41.9
605.197	-42.06
605.389	-15.44
605.581	5.04
605.774	89.01
605.966	23.47
606.158	-17.49
606.35	70.58
606.543	-13.39
606.735	-13.39
606.927	-11.34
607.119	56.24
607.311	60.34
607.503	5.04
607.695	39.86
607.887	35.76
608.079	86.96
608.271	25.52
608.463	54.19
608.655	86.96
608.847	95.15
609.039	39.86
609.231	-3.15
609.423	-27.73
609.615	17.33
609.807	72.62
609.999	93.1
610.191	56.24
610.382	107.44
610.574	-11.34
610.766	5.04
610.958	13.23
611.15	-11.34
611.341	29.62
611.533	13.23
611.725	13.23
611.916	15.28
612.108	5.04
612.3	9.14
612.491	70.58
612.683	33.71
612.874	66.48
613.066	56.24
613.257	-3.15
613.449	-3.15
613.64	64.43
613.832	13.23
614.023	31.66
614.215	95.15
614.406	37.81
614.598	-19.53
614.789	7.09
614.98	5.04
615.172	37.81
615.363	54.19
615.554	21.42
615.746	46
615.937	-58.45
616.128	48.05
616.319	66.48
616.511	-19.53
616.702	31.66
616.893	-13.39
617.084	-27.73
617.275	35.76
617.466	29.62
617.658	41.9
617.849	35.76
618.04	-33.87
618.231	-44.11
618.422	25.52
618.613	23.47
618.804	-48.21
618.995	46
619.186	39.86
619.377	23.47
619.568	21.42
619.758	56.24
619.949	25.52
620.14	103.34
620.331	29.62
620.522	17.33
620.713	-17.49
620.903	25.52
621.094	2.99
621.285	33.71
621.476	-93.26
621.666	43.95
621.857	21.42
622.048	13.23
622.238	15.28
622.429	29.62
622.62	5.04
622.81	0.95
623.001	33.71
623.191	64.43
623.382	11.19
623.572	68.53
623.763	66.48
623.953	35.76
624.144	54.19
624.334	25.52
624.525	-7.25
624.715	21.42
624.905	103.34
625.096	56.24
625.286	33.71
625.477	54.19
625.667	-19.53
625.857	25.52
626.047	17.33
626.238	78.77
626.428	72.62
626.618	19.38
626.808	72.62
626.999	-19.53
627.189	13.23
627.379	-9.29
627.569	-11.34
627.759	46
627.949	-15.44
628.139	62.38
628.329	168.88
628.519	62.38
628.709	89.01
628.899	72.62
629.089	91.06
629.279	31.66
629.469	37.81
629.659	86.96
629.849	93.1
630.039	21.42
630.229	123.82
630.419	50.1
630.609	84.91
630.798	37.81
630.988	41.9
631.178	86.96
631.368	74.67
631.557	50.1
631.747	-37.97
631.937	21.42
632.127	-17.49
632.316	50.1
632.506	37.81
632.696	-11.34
632.885	33.71
633.075	9.14
633.264	25.52
633.454	0.95
633.643	-25.68
633.833	29.62
634.022	17.33
634.212	25.52
634.401	23.47
634.591	70.58
634.78	9.14
634.97	17.33
635.159	9.14
635.348	-9.29
635.538	39.86
635.727	37.81
635.916	9.14
636.106	-27.73
636.295	76.72
636.484	11.19
636.674	46
636.863	13.23
637.052	60.34
637.241	35.76
637.43	-29.77
637.619	37.81
637.809	-50.25
637.998	56.24
638.187	13.23
638.376	-3.15
638.565	-1.1
638.754	15.28
638.943	50.1
639.132	-27.73
639.321	62.38
639.51	-9.29
639.699	31.66
639.888	-9.29
640.077	15.28
640.266	39.86
640.455	23.47
640.643	74.67
640.832	-56.4
641.021	48.05
641.21	29.62
641.399	5.04
641.587	66.48
641.776	0.95
641.965	21.42
642.154	74.67
642.342	21.42
642.531	93.1
642.72	101.3
642.908	64.43
643.097	37.81
643.286	2.99
643.474	72.62
643.663	56.24
643.851	29.62
644.04	41.9
644.228	-11.34
644.417	48.05
644.605	-35.92
644.794	15.28
644.982	19.38
645.171	-37.97
645.359	62.38
645.547	99.25
645.736	17.33
645.924	-9.29
646.112	33.71
646.301	37.81
646.489	7.09
646.677	-64.59
646.866	111.54
647.054	7.09
647.242	66.48
647.43	37.81
647.618	-35.92
647.807	35.76
647.995	-35.92
648.183	9.14
648.371	-35.92
648.559	29.62
648.747	46
648.935	5.04
649.123	-5.2
649.311	56.24
649.499	62.38
649.687	23.47
649.875	50.1
650.063	95.15
650.251	-15.44
650.439	52.14
650.627	27.57
650.815	-1.1
651.003	-58.45
651.191	13.23
651.378	46
651.566	74.67
651.754	19.38
651.942	25.52
652.13	-23.63
652.317	9.14
652.505	74.67
652.693	99.25
652.88	33.71
653.068	-48.21
653.256	25.52
653.443	23.47
653.631	-1.1
653.819	-27.73
654.006	31.66
654.194	29.62
654.381	-52.3
654.569	72.62
654.756	2.99
654.944	95.15
655.131	91.06
655.319	86.96
655.506	78.77
655.693	48.05
655.881	5.04
656.068	127.92
656.256	-66.64
656.443	-15.44
656.63	2.99
656.818	62.38
657.005	-3.15
657.192	25.52
657.379	97.2
657.567	13.23
657.754	39.86
657.941	70.58
658.128	23.47
658.315	70.58
658.502	68.53
658.69	31.66
658.877	17.33
659.064	54.19
659.251	-35.92
659.438	19.38
659.625	17.33
659.812	-9.29
659.999	-3.15
660.186	15.28
660.373	48.05
660.56	13.23
660.747	41.9
660.934	13.23
661.121	54.19
661.308	15.28
661.494	62.38
661.681	37.81
661.868	-19.53
662.055	101.3
662.242	-31.82
662.428	-11.34
662.615	13.23
662.802	97.2
662.989	58.29
663.175	66.48
663.362	46
663.549	9.14
663.735	17.33
663.922	56.24
664.109	-21.58
664.295	31.66
664.482	0.95
664.668	13.23
664.855	-44.11
665.041	52.14
665.228	70.58
665.414	27.57
665.601	54.19
665.787	-19.53
665.974	41.9
666.16	29.62
666.347	35.76
666.533	82.86
666.719	-35.92
666.906	-19.53
667.092	19.38
667.278	50.1
667.465	-35.92
667.651	-11.34
667.837	-25.68
668.023	99.25
668.21	37.81
668.396	-17.49
668.582	-11.34
668.768	60.34
668.954	-19.53
669.14	23.47
669.327	-1.1
669.513	46
669.699	23.47
669.885	-31.82
670.071	27.57
670.257	5.04
670.443	-7.25
670.629	17.33
670.815	58.29
671.001	66.48
671.187	43.95
671.373	91.06
671.559	74.67
671.744	11.19
671.93	-52.3
672.116	70.58
672.302	15.28
672.488	5.04
672.674	31.66
672.859	2.99
673.045	72.62
673.231	29.62
673.417	13.23
673.602	9.14
673.788	72.62
673.974	-9.29
674.159	-27.73
674.345	-1.1
674.531	97.2
674.716	70.58
674.902	-33.87
675.087	43.95
675.273	7.09
675.459	-23.63
675.644	-11.34
675.83	66.48
676.015	52.14
676.2	21.42
676.386	37.81
676.571	29.62
676.757	58.29
676.942	48.05
677.128	70.58
677.313	48.05
677.498	-11.34
677.684	-3.15
677.869	11.19
678.054	82.86
678.24	41.9
678.425	35.76
678.61	5.04
678.795	17.33
678.98	33.71
679.166	-17.49
679.351	54.19
679.536	-31.82
679.721	41.9
679.906	-7.25
680.091	56.24
680.276	-31.82
680.461	29.62
680.647	33.71
680.832	74.67
681.017	-3.15
681.202	-7.25
681.387	84.91
681.572	80.82
681.756	-3.15
681.941	97.2
682.126	74.67
682.311	52.14
682.496	39.86
682.681	-3.15
682.866	39.86
683.051	13.23
683.235	41.9
683.42	21.42
683.605	21.42
683.79	29.62
683.974	46
684.159	29.62
684.344	-11.34
684.529	25.52
684.713	82.86
684.898	-7.25
685.083	72.62
685.267	-40.01
685.452	31.66
685.636	0.95
685.821	54.19
686.005	-9.29
686.19	41.9
686.375	37.81
686.559	-19.53
686.744	-35.92
686.928	23.47
687.112	17.33
687.297	25.52
687.481	56.24
687.666	50.1
687.85	5.04
688.034	48.05
688.219	-25.68
688.403	-40.01
688.587	50.1
688.772	107.44
688.956	-3.15
689.14	25.52
689.324	-7.25
689.509	13.23
689.693	7.09
689.877	37.81
690.061	29.62
690.245	56.24
690.43	17.33
690.614	78.77
690.798	-11.34
690.982	50.1
691.166	-3.15
691.35	48.05
691.534	-19.53
691.718	89.01
691.902	-13.39
692.086	29.62
692.27	35.76
692.454	5.04
692.638	13.23
692.822	48.05
693.006	-31.82
693.19	7.09
693.373	17.33
693.557	29.62
693.741	9.14
693.925	41.9
694.109	9.14
694.293	48.05
694.476	74.67
694.66	58.29
694.844	-50.25
695.027	-33.87
695.211	13.23
695.395	-50.25
695.578	21.42
695.762	29.62
695.946	29.62
696.129	15.28
696.313	-11.34
696.497	72.62
696.68	113.58
696.864	37.81
697.047	97.2
697.231	33.71
697.414	74.67
697.598	-1.1
697.781	15.28
697.965	-1.1
698.148	103.34
698.331	-3.15
698.515	13.23
698.698	21.42
698.881	25.52
699.065	25.52
699.248	21.42
699.431	21.42
699.615	33.71
699.798	-15.44
699.981	29.62
700.165	-7.25
700.348	37.81
700.531	37.81
700.714	46
700.897	54.19
701.08	31.66
701.264	103.34
701.447	-15.44
701.63	17.33
701.813	74.67
701.996	62.38
702.179	29.62
702.362	66.48
702.545	52.14
702.728	-11.34
702.911	23.47
703.094	43.95
703.277	-17.49
703.46	70.58
703.643	-3.15
703.826	27.57
704.009	-17.49
704.191	9.14
704.374	21.42
704.557	5.04
704.74	46
704.923	29.62
705.106	21.42
705.288	78.77
705.471	56.24
705.654	-7.25
705.837	-29.77
706.019	91.06
706.202	50.1
706.385	-15.44
706.567	103.34
706.75	-11.34
706.932	64.43
707.115	54.19
707.298	13.23
707.48	58.29
707.663	-19.53
707.845	35.76
708.028	33.71
708.21	19.38
708.393	50.1
708.575	86.96
708.758	48.05
708.94	23.47
709.123	11.19
709.305	72.62
709.487	58.29
709.67	15.28
709.852	25.52
710.034	62.38
710.217	15.28
710.399	25.52
710.581	29.62
710.764	37.81
710.946	113.58
711.128	56.24
711.31	17.33
711.492	80.82
711.675	-1.1
711.857	39.86
712.039	129.97
712.221	25.52
712.403	80.82
712.585	17.33
712.767	0.95
712.949	54.19
713.131	-17.49
713.314	37.81
713.496	31.66
713.678	-11.34
713.86	31.66
714.041	21.42
714.223	-19.53
714.405	39.86
714.587	-19.53
714.769	-13.39
714.951	31.66
715.133	48.05
715.315	17.33
715.497	37.81
715.678	46
715.86	13.23
716.042	60.34
716.224	84.91
716.406	21.42
716.587	68.53
716.769	0.95
716.951	72.62
717.132	5.04
717.314	84.91
717.496	27.57
717.677	11.19
717.859	9.14
718.041	-11.34
718.222	78.77
718.404	5.04
718.585	-9.29
718.767	-66.64
718.948	70.58
719.13	-23.63
719.311	27.57
719.493	15.28
719.674	-25.68
719.856	33.71
720.037	21.42
720.219	70.58
720.4	21.42
720.581	-13.39
720.763	-1.1
720.944	21.42
721.125	-15.44
721.307	-15.44
721.488	37.81
721.669	29.62
721.85	99.25
722.032	13.23
722.213	37.81
722.394	64.43
722.575	-48.21
722.756	91.06
722.938	91.06
723.119	72.62
723.3	-17.49
723.481	48.05
723.662	58.29
723.843	17.33
724.024	41.9
724.205	37.81
724.386	-5.2
724.567	80.82
724.748	-37.97
724.929	54.19
725.11	82.86
725.291	86.96
725.472	56.24
725.653	50.1
725.834	-11.34
726.015	27.57
726.196	13.23
726.377	23.47
726.557	-15.44
726.738	37.81
726.919	33.71
727.1	13.23
727.281	-15.44
727.461	-11.34
727.642	54.19
727.823	5.04
728.004	62.38
728.184	50.1
728.365	48.05
728.546	62.38
728.726	91.06
728.907	39.86
729.087	29.62
729.268	50.1
729.449	33.71
729.629	66.48
729.81	-19.53
729.99	46
730.171	-42.06
730.351	-44.11
730.532	2.99
730.712	105.39
730.893	95.15
731.073	13.23
731.253	78.77
731.434	105.39
731.614	15.28
731.795	-1.1
731.975	-9.29
732.155	13.23
732.336	62.38
732.516	70.58
732.696	35.76
732.876	70.58
733.057	21.42
733.237	60.34
733.417	-7.25
733.597	27.57
733.778	23.47
733.958	13.23
734.138	23.47
734.318	62.38
734.498	84.91
734.678	-19.53
734.858	5.04
735.038	70.58
735.218	15.28
735.398	-9.29
735.579	13.23
735.759	-7.25
735.939	0.95
736.119	-11.34
736.298	-54.35
736.478	-31.82
736.658	11.19
736.838	-11.34
737.018	37.81
737.198	-11.34
737.378	9.14
737.558	46
737.738	50.1
737.917	111.54
738.097	19.38
738.277	74.67
738.457	37.81
738.637	31.66
738.816	-60.49
738.996	-1.1
739.176	-11.34
739.355	-15.44
739.535	9.14
739.715	5.04
739.894	21.42
740.074	66.48
740.254	5.04
740.433	-7.25
740.613	15.28
740.792	-9.29
740.972	-46.16
741.151	25.52
741.331	0.95
741.51	37.81
741.69	41.9
741.869	29.62
742.049	27.57
742.228	5.04
742.408	66.48
742.587	-31.82
742.766	21.42
742.946	27.57
743.125	-25.68
743.305	13.23
743.484	78.77
743.663	58.29
743.842	-3.15
744.022	39.86
744.201	25.52
744.38	76.72
744.56	86.96
744.739	78.77
744.918	72.62
745.097	2.99
745.276	17.33
745.455	35.76
745.635	21.42
745.814	58.29
745.993	62.38
746.172	-15.44
746.351	21.42
746.53	58.29
746.709	37.81
746.888	9.14
747.067	-27.73
747.246	39.86
747.425	31.66
747.604	-15.44
747.783	-44.11
747.962	41.9
748.141	19.38
748.32	5.04
748.499	15.28
748.677	-1.1
748.856	7.09
749.035	52.14
749.214	11.19
749.393	56.24
749.572	125.87
749.75	54.19
749.929	31.66
750.108	29.62
750.287	62.38
750.465	13.23
750.644	31.66
750.823	64.43
751.001	37.81
751.18	21.42
751.359	33.71
751.537	78.77
751.716	70.58
751.894	54.19
752.073	21.42
752.251	-11.34
752.43	0.95
752.609	29.62
752.787	31.66
752.966	-11.34
753.144	23.47
753.322	58.29
753.501	17.33
753.679	21.42
753.858	7.09
754.036	37.81
754.215	48.05
754.393	0.95
754.571	46
754.75	37.81
754.928	-21.58
755.106	-48.21
755.284	-33.87
755.463	68.53
755.641	25.52
755.819	-11.34
755.997	-9.29
756.176	56.24
756.354	82.86
756.532	-35.92
756.71	99.25
756.888	-3.15
757.066	25.52
757.245	21.42
757.423	-44.11
757.601	72.62
757.779	21.42
757.957	37.81
758.135	-17.49
758.313	-31.82
758.491	-19.53
758.669	5.04
758.847	21.42
759.025	21.42
759.203	15.28
759.381	-25.68
759.559	84.91
759.737	23.47
759.915	17.33
760.092	46
760.27	7.09
760.448	-19.53
760.626	9.14
760.804	54.19
760.981	50.1
761.159	-64.59
761.337	-3.15
761.515	31.66
761.692	-3.15
761.87	-11.34
762.048	-15.44
762.226	41.9
762.403	78.77
762.581	-15.44
762.759	-33.87
762.936	13.23
763.114	21.42
763.291	62.38
763.469	2.99
763.647	0.95
763.824	37.81
764.002	29.62
764.179	13.23
764.357	-58.45
764.534	5.04
764.712	19.38
764.889	23.47
765.066	78.77
765.244	7.09
765.421	13.23
765.599	25.52
765.776	115.63
765.953	48.05
766.131	-1.1
766.308	37.81
766.485	-52.3
766.663	-7.25
766.84	17.33
767.017	5.04
767.194	50.1
767.372	43.95
767.549	50.1
767.726	19.38
767.903	33.71
768.081	31.66
768.258	29.62
768.435	39.86
768.612	109.49
768.789	-17.49
768.966	13.23
769.143	-27.73
769.32	-17.49
769.497	-52.3
769.674	60.34
769.851	43.95
770.028	-11.34
770.205	-19.53
770.382	70.58
770.559	78.77
770.736	25.52
770.913	-15.44
771.09	21.42
771.267	62.38
771.444	5.04
771.621	13.23
771.798	80.82
771.975	39.86
772.151	-1.1
772.328	15.28
772.505	-7.25
772.682	107.44
772.859	-19.53
773.035	5.04
773.212	11.19
773.389	41.9
773.565	37.81
773.742	-33.87
773.919	13.23
774.096	19.38
774.272	37.81
774.449	-3.15
774.625	2.99
774.802	91.06
774.979	13.23
775.155	21.42
775.332	39.86
775.508	78.77
775.685	-27.73
775.861	-3.15
776.038	86.96
776.214	31.66
776.391	33.71
776.567	17.33
776.744	-11.34
776.92	93.1
777.096	48.05
777.273	-23.63
777.449	13.23
777.626	-35.92
777.802	78.77
777.978	46
778.155	-13.39
778.331	37.81
778.507	23.47
778.683	-31.82
778.86	21.42
779.036	37.81
779.212	5.04
779.388	86.96
779.565	33.71
779.741	-19.53
779.917	15.28
780.093	21.42
780.269	70.58
780.445	-11.34
780.621	-11.34
780.797	25.52
780.974	13.23
781.15	54.19
781.326	25.52
781.502	-11.34
781.678	48.05
781.854	13.23
782.03	58.29
782.206	86.96
782.382	74.67
782.558	54.19
782.733	64.43
782.909	5.04
783.085	56.24
783.261	62.38
783.437	-31.82
783.613	-11.34
783.789	13.23
783.965	15.28
784.14	54.19
784.316	17.33
784.492	21.42
784.668	58.29
784.843	95.15
785.019	-35.92
785.195	5.04
785.371	62.38
785.546	21.42
785.722	52.14
785.898	78.77
786.073	5.04
786.249	21.42
786.424	37.81
786.6	95.15
786.776	60.34
786.951	41.9
787.127	7.09
787.302	-7.25
787.478	-3.15
787.653	-25.68
787.829	-11.34
788.004	-7.25
788.18	62.38
788.355	29.62
788.531	43.95
788.706	-52.3
788.881	0.95
789.057	46
789.232	37.81
789.408	50.1
789.583	-3.15
789.758	7.09
789.934	-9.29
790.109	-25.68
790.284	-3.15
790.459	60.34
790.635	62.38
790.81	80.82
790.985	41.9
791.16	-37.97
791.336	70.58
791.511	-11.34
791.686	23.47
791.861	29.62
792.036	23.47
792.211	13.23
792.387	97.2
792.562	132.02
792.737	21.42
792.912	91.06
793.087	13.23
793.262	-31.82
793.437	15.28
793.612	46
793.787	76.72
793.962	64.43
794.137	-56.4
794.312	37.81
794.487	5.04
794.662	7.09
794.837	7.09
795.011	-3.15
795.186	35.76
795.361	15.28
795.536	-1.1
795.711	7.09
795.886	66.48
796.06	9.14
796.235	19.38
796.41	66.48
796.585	9.14
796.76	13.23
796.934	31.66
797.109	62.38
797.284	99.25
797.458	17.33
797.633	21.42
797.808	99.25
797.982	5.04
798.157	2.99
798.332	74.67
798.506	5.04
798.681	23.47
798.855	-52.3
799.03	-23.63
799.204	29.62
799.379	-11.34
799.553	41.9
799.728	70.58
799.902	0.95
800.077	0.95
800.251	64.43
800.426	48.05
800.6	-52.3
800.775	13.23
800.949	29.62
801.123	21.42
801.298	70.58
801.472	-11.34
801.647	13.23
801.821	31.66
801.995	19.38
802.169	-1.1
802.344	29.62
802.518	41.9
802.692	-1.1
802.867	62.38
803.041	39.86
803.215	31.66
803.389	56.24
803.563	13.23
803.737	93.1
803.912	5.04
804.086	23.47
804.26	-29.77
804.434	29.62
804.608	9.14
804.782	-33.87
804.956	21.42
805.13	11.19
805.304	-52.3
805.478	37.81
805.652	52.14
805.826	103.34
806	7.09
806.174	70.58
806.348	-23.63
806.522	0.95
806.696	95.15
806.87	13.23
807.044	64.43
807.218	0.95
807.392	-3.15
807.566	29.62
807.739	23.47
807.913	0.95
808.087	-3.15
808.261	58.29
808.435	-33.87
808.608	-27.73
808.782	-19.53
808.956	31.66
809.13	2.99
809.303	-3.15
809.477	13.23
809.651	-15.44
809.824	0.95
809.998	52.14
810.172	35.76
810.345	-15.44
810.519	0.95
810.692	58.29
810.866	54.19
811.04	13.23
811.213	9.14
811.387	-15.44
811.56	76.72
811.734	89.01
811.907	39.86
812.081	64.43
812.254	-25.68
812.428	86.96
812.601	13.23
812.774	-1.1
812.948	31.66
813.121	54.19
813.295	43.95
813.468	33.71
813.641	29.62
813.815	-19.53
813.988	17.33
814.161	13.23
814.335	64.43
814.508	33.71
814.681	78.77
814.854	66.48
815.028	43.95
815.201	-15.44
815.374	15.28
815.547	31.66
815.72	46
815.894	19.38
816.067	-23.63
816.24	48.05
816.413	-58.45
816.586	17.33
816.759	74.67
816.932	50.1
817.105	17.33
817.278	29.62
817.452	27.57
817.625	62.38
817.798	37.81
817.971	46
818.144	64.43
818.317	56.24
818.49	29.62
818.662	78.77
818.835	19.38
819.008	72.62
819.181	13.23
819.354	56.24
819.527	-1.1
819.7	54.19
819.873	19.38
820.046	43.95
820.218	5.04
820.391	-19.53
820.564	48.05
820.737	-11.34
820.909	54.19
821.082	72.62
821.255	74.67
821.428	-27.73
821.6	27.57
821.773	41.9
821.946	11.19
822.118	-23.63
822.291	70.58
822.464	-31.82
822.636	17.33
822.809	72.62
822.982	37.81
823.154	80.82
823.327	-11.34
823.499	64.43
823.672	-9.29
823.844	41.9
824.017	46
824.189	21.42
824.362	25.52
824.534	62.38
824.707	11.19
824.879	21.42
825.052	72.62
825.224	70.58
825.396	21.42
825.569	64.43
825.741	84.91
825.914	80.82
826.086	-11.34
826.258	54.19
826.431	50.1
826.603	62.38
826.775	70.58
826.947	29.62
827.12	54.19
827.292	9.14
827.464	5.04
827.636	99.25
827.809	17.33
827.981	7.09
828.153	5.04
828.325	54.19
828.497	95.15
828.669	-7.25
828.842	52.14
829.014	64.43
829.186	41.9
829.358	48.05
829.53	72.62
829.702	21.42
829.874	-11.34
830.046	13.23
830.218	-60.49
830.39	70.58
830.562	37.81
830.734	46
830.906	70.58
831.078	11.19
831.25	-11.34
831.422	19.38
831.594	33.71
831.766	50.1
831.937	-19.53
832.109	5.04
832.281	95.15
832.453	13.23
832.625	13.23
832.797	54.19
832.968	-35.92
833.14	86.96
833.312	7.09
833.484	-5.2
833.655	0.95
833.827	58.29
833.999	-35.92
834.171	21.42
834.342	29.62
834.514	-35.92
834.686	9.14
834.857	46
835.029	105.39
835.2	27.57
835.372	-19.53
835.544	-17.49
835.715	105.39
835.887	25.52
836.058	27.57
836.23	50.1
836.401	0.95
836.573	7.09
836.744	29.62
836.916	39.86
837.087	13.23
837.259	62.38
837.43	-23.63
837.602	37.81
837.773	37.81
837.945	74.67
838.116	17.33
838.287	50.1
838.459	78.77
838.63	-19.53
838.801	-27.73
838.973	7.09
839.144	23.47
839.315	48.05
839.487	-76.88
839.658	5.04
839.829	15.28
840	-31.82
840.172	-11.34
840.343	43.95
840.514	-11.34
840.685	-3.15
840.856	25.52
841.027	19.38
841.199	13.23
841.37	52.14
841.541	48.05
841.712	-64.59
841.883	37.81
842.054	64.43
842.225	29.62
842.396	39.86
842.567	31.66
842.738	-52.3
842.909	29.62
843.08	74.67
843.251	115.63
843.422	15.28
843.593	-7.25
843.764	-19.53
843.935	21.42
844.106	-35.92
844.277	25.52
844.448	0.95
844.619	-3.15
844.79	5.04
844.96	37.81
845.131	23.47
845.302	-17.49
845.473	35.76
845.644	39.86
845.814	46
845.985	29.62
846.156	39.86
846.327	56.24
846.497	29.62
846.668	64.43
846.839	15.28
847.01	21.42
847.18	23.47
847.351	-9.29
847.522	70.58
847.692	37.81
847.863	-33.87
848.033	29.62
848.204	-23.63
848.375	-17.49
848.545	-25.68
848.716	46
848.886	31.66
849.057	78.77
849.227	33.71
849.398	-25.68
849.568	33.71
849.739	9.14
849.909	56.24
850.08	-11.34
850.25	13.23
850.421	31.66
850.591	25.52
850.761	31.66
850.932	5.04
851.102	5.04
851.272	-50.25
851.443	19.38
851.613	23.47
851.783	115.63
851.954	13.23
852.124	25.52
852.294	58.29
852.465	-50.25
852.635	-60.49
852.805	29.62
852.975	62.38
853.145	29.62
853.316	48.05
853.486	0.95
853.656	21.42
853.826	29.62
853.996	48.05
854.166	80.82
854.337	46
854.507	54.19
854.677	33.71
854.847	37.81
855.017	27.57
855.187	46
855.357	54.19
855.527	-27.73
855.697	13.23
855.867	46
856.037	43.95
856.207	62.38
856.377	80.82
856.547	74.67
856.717	99.25
856.887	37.81
857.057	111.54
857.227	5.04
857.397	64.43
857.566	25.52
857.736	13.23
857.906	35.76
858.076	25.52
858.246	21.42
858.416	82.86
858.585	5.04
858.755	82.86
858.925	46
859.095	19.38
859.264	74.67
859.434	70.58
859.604	-35.92
859.774	23.47
859.943	13.23
860.113	31.66
860.283	21.42
860.452	5.04
860.622	76.72
860.791	0.95
860.961	99.25
861.131	54.19
861.3	123.82
861.47	41.9
861.639	2.99
861.809	15.28
861.978	41.9
862.148	58.29
862.318	54.19
862.487	-19.53
862.657	31.66
862.826	25.52
862.995	-54.35
863.165	78.77
863.334	-19.53
863.504	80.82
863.673	23.47
863.843	66.48
864.012	78.77
864.181	58.29
864.351	-44.11
864.52	-27.73
864.689	-29.77
864.859	-13.39
865.028	7.09
865.197	11.19
865.366	13.23
865.536	9.14
865.705	13.23
865.874	113.58
866.043	-17.49
866.213	23.47
866.382	7.09
866.551	-9.29
866.72	50.1
866.889	9.14
867.059	58.29
867.228	46
867.397	2.99
867.566	-7.25
867.735	-25.68
867.904	37.81
868.073	43.95
868.242	41.9
868.411	0.95
868.58	19.38
868.749	91.06
868.918	23.47
869.087	-23.63
869.256	54.19
869.425	62.38
869.594	-7.25
869.763	58.29
869.932	54.19
870.101	86.96
870.27	52.14
870.439	52.14
870.608	46
870.777	-1.1
870.945	37.81
871.114	-66.64
871.283	25.52
871.452	43.95
871.621	5.04
871.789	23.47
871.958	35.76
872.127	37.81
872.296	-25.68
872.464	70.58
872.633	-7.25
872.802	19.38
872.971	17.33
873.139	54.19
873.308	64.43
873.477	72.62
873.645	-31.82
873.814	7.09
873.983	54.19
874.151	99.25
874.32	0.95
874.488	70.58
874.657	-35.92
874.826	19.38
874.994	78.77
875.163	54.19
875.331	7.09
875.5	-31.82
875.668	50.1
875.837	58.29
876.005	13.23
876.174	21.42
876.342	70.58
876.51	-52.3
876.679	17.33
876.847	35.76
877.016	97.2
877.184	25.52
877.352	33.71
877.521	0.95
877.689	-44.11
877.857	29.62
878.026	78.77
878.194	21.42
878.362	58.29
878.531	5.04
878.699	13.23
878.867	43.95
879.036	37.81
879.204	43.95
879.372	29.62
879.54	21.42
879.708	70.58
879.877	86.96
880.045	11.19
880.213	15.28
880.381	5.04
880.549	13.23
880.717	37.81
880.885	91.06
881.054	13.23
881.222	76.72
881.39	-1.1
881.558	72.62
881.726	17.33
881.894	-42.06
882.062	-1.1
882.23	-1.1
882.398	29.62
882.566	46
882.734	29.62
882.902	-5.2
883.07	127.92
883.238	5.04
883.406	5.04
883.574	-1.1
883.741	41.9
883.909	21.42
884.077	66.48
884.245	15.28
884.413	23.47
884.581	-60.49
884.749	-72.78
884.916	54.19
885.084	5.04
885.252	66.48
885.42	39.86
885.587	-19.53
885.755	103.34
885.923	58.29
886.091	35.76
886.258	48.05
886.426	66.48
886.594	-40.01
886.761	39.86
886.929	-19.53
887.097	37.81
887.264	64.43
887.432	29.62
887.6	37.81
887.767	11.19
887.935	31.66
888.102	-23.63
888.27	62.38
888.438	21.42
888.605	0.95
888.773	119.73
888.94	5.04
889.108	-13.39
889.275	-11.34
889.443	-37.97
889.61	66.48
889.778	62.38
889.945	-7.25
890.112	15.28
890.28	80.82
890.447	39.86
890.615	-11.34
890.782	25.52
890.949	43.95
891.117	25.52
891.284	25.52
891.452	95.15
891.619	62.38
891.786	23.47
891.953	29.62
892.121	62.38
892.288	-3.15
892.455	46
892.623	-1.1
892.79	74.67
892.957	9.14
893.124	46
893.291	-9.29
893.459	56.24
893.626	66.48
893.793	-29.77
893.96	-19.53
894.127	74.67
894.294	29.62
894.461	15.28
894.629	37.81
894.796	33.71
894.963	58.29
895.13	41.9
895.297	-5.2
895.464	46
895.631	-5.2
895.798	13.23
895.965	101.3
896.132	54.19
896.299	62.38
896.466	82.86
896.633	21.42
896.8	72.62
896.967	21.42
897.134	33.71
897.301	39.86
897.467	2.99
897.634	-5.2
897.801	43.95
897.968	46
898.135	127.92
898.302	7.09
898.469	13.23
898.635	86.96
898.802	62.38
898.969	21.42
899.136	17.33
899.303	119.73
