Data from dark_USB4E013581_00020.txt Node
Date: Wed May 08 15:05:46 EDT 2019
User: dh1006
Spectrometer: USB4E01358
Autoset integration time: false
Trigger mode: 4
Integration Time (sec): 2.925000E-2
Scans to average: 1
Electric dark correction enabled: true
Nonlinearity correction enabled: false
Boxcar width: 0
Stray light correction enabled: false
XAxis mode: Wavelengths
Stop averaging: false
Number of Pixels in Spectrum: 3648
>>>>>Begin Spectral Data<<<<<
176.727	-42.22
176.966	-42.22
177.205	-42.22
177.444	-27.88
177.683	-40.17
177.922	-5.36
178.161	29.46
178.4	37.65
178.638	47.89
178.877	37.65
179.116	27.41
179.355	31.51
179.593	-11.5
179.832	-1.26
180.071	33.56
180.309	-38.12
180.548	2.84
180.786	4.88
181.025	-1.26
181.263	68.37
181.502	-52.46
181.74	19.22
181.979	45.84
182.217	47.89
182.456	27.41
182.694	47.89
182.932	39.7
183.17	-42.22
183.409	6.93
183.647	25.36
183.885	72.47
184.123	51.99
184.361	62.23
184.6	-15.6
184.838	82.71
185.076	-3.31
185.314	135.95
185.552	-25.84
185.79	76.56
186.028	-46.32
186.266	13.08
186.503	-1.26
186.741	-15.6
186.979	31.51
187.217	25.36
187.455	45.84
187.693	19.22
187.93	-13.55
188.168	64.27
188.406	13.08
188.643	-21.74
188.881	-13.55
189.119	-36.08
189.356	4.88
189.594	13.08
189.831	31.51
190.069	68.37
190.306	-87.27
190.543	43.8
190.781	21.27
191.018	60.18
191.256	19.22
191.493	15.12
191.73	25.36
191.967	-13.55
192.205	37.65
192.442	13.08
192.679	51.99
192.916	64.27
193.153	21.27
193.39	35.6
193.628	90.9
193.865	86.8
194.102	19.22
194.339	43.8
194.576	21.27
194.813	-9.45
195.049	2.84
195.286	25.36
195.523	-5.36
195.76	39.7
195.997	15.12
196.234	-11.5
196.47	51.99
196.707	-17.64
196.944	66.32
197.18	-46.32
197.417	-3.31
197.654	27.41
197.89	56.08
198.127	-19.69
198.363	39.7
198.6	31.51
198.836	21.27
199.073	99.09
199.309	-13.55
199.546	19.22
199.782	64.27
200.018	31.51
200.255	19.22
200.491	2.84
200.727	39.7
200.963	74.51
201.199	76.56
201.436	68.37
201.672	-13.55
201.908	39.7
202.144	2.84
202.38	23.32
202.616	60.18
202.852	-9.45
203.088	45.84
203.324	68.37
203.56	11.03
203.796	23.32
204.032	27.41
204.268	97.04
204.503	15.12
204.739	4.88
204.975	11.03
205.211	6.93
205.446	35.6
205.682	60.18
205.918	35.6
206.153	15.12
206.389	-21.74
206.625	-13.55
206.86	-15.6
207.096	35.6
207.331	60.18
207.567	60.18
207.802	35.6
208.037	43.8
208.273	-21.74
208.508	54.03
208.744	-17.64
208.979	-70.89
209.214	-34.03
209.449	19.22
209.685	45.84
209.92	4.88
210.155	35.6
210.39	29.46
210.625	43.8
210.86	-5.36
211.095	70.42
211.33	64.27
211.565	-27.88
211.8	27.41
212.035	45.84
212.27	2.84
212.505	21.27
212.74	-7.4
212.975	23.32
213.21	29.46
213.444	37.65
213.679	72.47
213.914	-29.93
214.149	11.03
214.383	35.6
214.618	70.42
214.853	37.65
215.087	19.22
215.322	17.17
215.556	54.03
215.791	13.08
216.025	31.51
216.26	-1.26
216.494	84.75
216.729	47.89
216.963	37.65
217.197	2.84
217.432	-36.08
217.666	15.12
217.9	64.27
218.135	51.99
218.369	35.6
218.603	56.08
218.837	39.7
219.071	27.41
219.306	31.51
219.54	39.7
219.774	47.89
220.008	2.84
220.242	27.41
220.476	-38.12
220.71	4.88
220.944	11.03
221.178	19.22
221.411	51.99
221.645	37.65
221.879	94.99
222.113	43.8
222.347	2.84
222.58	8.98
222.814	-11.5
223.048	27.41
223.281	21.27
223.515	105.23
223.749	70.42
223.982	-13.55
224.216	-19.69
224.449	68.37
224.683	-13.55
224.916	76.56
225.15	43.8
225.383	2.84
225.617	21.27
225.85	51.99
226.083	70.42
226.317	76.56
226.55	90.9
226.783	6.93
227.016	51.99
227.25	-1.26
227.483	35.6
227.716	27.41
227.949	51.99
228.182	37.65
228.415	70.42
228.648	21.27
228.881	27.41
229.114	49.94
229.347	31.51
229.58	51.99
229.813	58.13
230.046	17.17
230.279	15.12
230.512	19.22
230.745	109.33
230.977	101.14
231.21	-17.64
231.443	6.93
231.675	19.22
231.908	27.41
232.141	62.23
232.373	43.8
232.606	72.47
232.839	29.46
233.071	-3.31
233.304	-1.26
233.536	-21.74
233.769	29.46
234.001	60.18
234.233	37.65
234.466	35.6
234.698	35.6
234.93	45.84
235.163	25.36
235.395	-29.93
235.627	-58.6
235.86	21.27
236.092	2.84
236.324	43.8
236.556	109.33
236.788	-36.08
237.02	90.9
237.252	-9.45
237.484	70.42
237.716	6.93
237.948	4.88
238.18	-50.41
238.412	68.37
238.644	29.46
238.876	60.18
239.108	80.66
239.34	68.37
239.571	8.98
239.803	19.22
240.035	-9.45
240.267	2.84
240.498	-21.74
240.73	33.56
240.962	-17.64
241.193	47.89
241.425	-9.45
241.656	-1.26
241.888	54.03
242.119	62.23
242.351	4.88
242.582	54.03
242.814	-109.8
243.045	2.84
243.277	27.41
243.508	62.23
243.739	29.46
243.971	37.65
244.202	51.99
244.433	43.8
244.664	-17.64
244.896	-46.32
245.127	97.04
245.358	72.47
245.589	19.22
245.82	-27.88
246.051	41.75
246.282	-13.55
246.513	-17.64
246.744	19.22
246.975	45.84
247.206	29.46
247.437	109.33
247.668	19.22
247.899	-21.74
248.129	27.41
248.36	27.41
248.591	68.37
248.822	56.08
249.052	4.88
249.283	92.95
249.514	84.75
249.744	60.18
249.975	-38.12
250.206	27.41
250.436	31.51
250.667	103.19
250.897	-21.74
251.128	60.18
251.358	39.7
251.589	-11.5
251.819	35.6
252.049	35.6
252.28	-1.26
252.51	72.47
252.74	138
252.971	33.56
253.201	31.51
253.431	64.27
253.661	45.84
253.891	27.41
254.121	13.08
254.352	37.65
254.582	0.79
254.812	27.41
255.042	23.32
255.272	-5.36
255.502	-52.46
255.732	82.71
255.962	8.98
256.192	35.6
256.421	-3.31
256.651	49.94
256.881	125.71
257.111	47.89
257.341	-38.12
257.57	-3.31
257.8	-58.6
258.03	-9.45
258.259	-21.74
258.489	35.6
258.719	-1.26
258.948	11.03
259.178	47.89
259.407	43.8
259.637	-1.26
259.866	35.6
260.096	4.88
260.325	23.32
260.555	2.84
260.784	35.6
261.013	11.03
261.243	25.36
261.472	45.84
261.701	0.79
261.931	6.93
262.16	97.04
262.389	6.93
262.618	21.27
262.847	45.84
263.076	4.88
263.305	60.18
263.535	-34.03
263.764	21.27
263.993	19.22
264.222	-9.45
264.451	68.37
264.679	11.03
264.908	-1.26
265.137	19.22
265.366	45.84
265.595	-36.08
265.824	0.79
266.053	6.93
266.281	-17.64
266.51	92.95
266.739	62.23
266.967	2.84
267.196	21.27
267.425	19.22
267.653	-46.32
267.882	-36.08
268.11	-34.03
268.339	47.89
268.567	6.93
268.796	72.47
269.024	76.56
269.253	-42.22
269.481	8.98
269.709	37.65
269.938	31.51
270.166	43.8
270.394	19.22
270.623	31.51
270.851	-1.26
271.079	39.7
271.307	4.88
271.535	-5.36
271.764	31.51
271.992	51.99
272.22	97.04
272.448	39.7
272.676	21.27
272.904	11.03
273.132	-21.74
273.36	-62.7
273.588	-13.55
273.816	8.98
274.043	29.46
274.271	47.89
274.499	35.6
274.727	43.8
274.955	25.36
275.182	-27.88
275.41	86.8
275.638	43.8
275.866	-56.56
276.093	8.98
276.321	-42.22
276.548	11.03
276.776	-5.36
277.003	37.65
277.231	-17.64
277.458	56.08
277.686	-54.51
277.913	-29.93
278.141	33.56
278.368	-19.69
278.595	-31.98
278.823	35.6
279.05	51.99
279.277	35.6
279.505	-38.12
279.732	-29.93
279.959	23.32
280.186	64.27
280.413	-27.88
280.641	39.7
280.868	39.7
281.095	-74.99
281.322	2.84
281.549	62.23
281.776	43.8
282.003	43.8
282.23	35.6
282.457	-64.75
282.683	15.12
282.91	66.32
283.137	-13.55
283.364	19.22
283.591	17.17
283.818	-36.08
284.044	-13.55
284.271	41.75
284.498	15.12
284.724	-38.12
284.951	4.88
285.178	15.12
285.404	2.84
285.631	6.93
285.857	-11.5
286.084	-38.12
286.31	37.65
286.537	47.89
286.763	39.7
286.99	31.51
287.216	29.46
287.442	-5.36
287.669	25.36
287.895	54.03
288.121	15.12
288.347	13.08
288.574	-29.93
288.8	-1.26
289.026	19.22
289.252	-38.12
289.478	51.99
289.704	19.22
289.931	39.7
290.157	-60.65
290.383	27.41
290.609	-5.36
290.835	37.65
291.06	27.41
291.286	23.32
291.512	29.46
291.738	8.98
291.964	13.08
292.19	2.84
292.416	17.17
292.641	-3.31
292.867	-1.26
293.093	11.03
293.319	13.08
293.544	15.12
293.77	-29.93
293.995	21.27
294.221	-50.41
294.447	37.65
294.672	-3.31
294.898	35.6
295.123	68.37
295.349	37.65
295.574	27.41
295.799	60.18
296.025	29.46
296.25	-21.74
296.476	4.88
296.701	47.89
296.926	41.75
297.151	15.12
297.377	54.03
297.602	-13.55
297.827	-25.84
298.052	74.51
298.277	-7.4
298.502	-42.22
298.727	-36.08
298.953	-13.55
299.178	51.99
299.403	-72.94
299.628	27.41
299.852	13.08
300.077	68.37
300.302	21.27
300.527	31.51
300.752	62.23
300.977	68.37
301.202	-29.93
301.426	43.8
301.651	68.37
301.876	-25.84
302.101	-15.6
302.325	-1.26
302.55	11.03
302.775	76.56
302.999	-5.36
303.224	33.56
303.448	35.6
303.673	-11.5
303.897	56.08
304.122	6.93
304.346	27.41
304.571	-5.36
304.795	21.27
305.019	4.88
305.244	13.08
305.468	-5.36
305.692	-9.45
305.917	74.51
306.141	35.6
306.365	43.8
306.589	15.12
306.813	-3.31
307.038	23.32
307.262	0.79
307.486	-9.45
307.71	8.98
307.934	43.8
308.158	35.6
308.382	29.46
308.606	-7.4
308.83	70.42
309.054	-38.12
309.278	-13.55
309.502	72.47
309.725	43.8
309.949	23.32
310.173	6.93
310.397	8.98
310.62	21.27
310.844	8.98
311.068	-42.22
311.292	56.08
311.515	41.75
311.739	-13.55
311.962	-9.45
312.186	2.84
312.41	23.32
312.633	33.56
312.857	-46.32
313.08	35.6
313.303	21.27
313.527	-5.36
313.75	-38.12
313.974	49.94
314.197	-44.27
314.42	29.46
314.644	11.03
314.867	35.6
315.09	2.84
315.313	-23.79
315.536	15.12
315.76	51.99
315.983	82.71
316.206	56.08
316.429	66.32
316.652	-66.8
316.875	6.93
317.098	29.46
317.321	4.88
317.544	51.99
317.767	-5.36
317.99	51.99
318.213	-54.51
318.436	-7.4
318.658	-62.7
318.881	-11.5
319.104	84.75
319.327	31.51
319.55	-3.31
319.772	51.99
319.995	27.41
320.218	56.08
320.44	43.8
320.663	56.08
320.885	45.84
321.108	47.89
321.331	13.08
321.553	21.27
321.776	-44.27
321.998	37.65
322.22	-40.17
322.443	68.37
322.665	56.08
322.888	43.8
323.11	35.6
323.332	-5.36
323.555	-11.5
323.777	17.17
323.999	-3.31
324.221	-21.74
324.443	-5.36
324.666	64.27
324.888	17.17
325.11	27.41
325.332	35.6
325.554	31.51
325.776	19.22
325.998	2.84
326.22	-27.88
326.442	49.94
326.664	-42.22
326.886	56.08
327.108	-25.84
327.33	45.84
327.551	43.8
327.773	47.89
327.995	-19.69
328.217	4.88
328.439	15.12
328.66	11.03
328.882	-68.84
329.104	62.23
329.325	49.94
329.547	78.61
329.769	56.08
329.99	39.7
330.212	31.51
330.433	35.6
330.655	13.08
330.876	-5.36
331.098	8.98
331.319	19.22
331.54	-1.26
331.762	6.93
331.983	17.17
332.204	4.88
332.426	60.18
332.647	-23.79
332.868	-103.66
333.089	45.84
333.311	-7.4
333.532	23.32
333.753	-42.22
333.974	23.32
334.195	-21.74
334.416	-52.46
334.637	94.99
334.858	72.47
335.079	11.03
335.3	54.03
335.521	-1.26
335.742	33.56
335.963	-38.12
336.184	88.85
336.405	45.84
336.626	25.36
336.846	92.95
337.067	23.32
337.288	43.8
337.509	-5.36
337.729	-27.88
337.95	72.47
338.171	-15.6
338.391	-34.03
338.612	47.89
338.833	27.41
339.053	47.89
339.274	51.99
339.494	15.12
339.715	58.13
339.935	11.03
340.156	29.46
340.376	13.08
340.596	19.22
340.817	54.03
341.037	19.22
341.257	-64.75
341.478	66.32
341.698	15.12
341.918	-21.74
342.138	2.84
342.359	-1.26
342.579	0.79
342.799	37.65
343.019	39.7
343.239	76.56
343.459	29.46
343.679	64.27
343.899	-5.36
344.119	13.08
344.339	-21.74
344.559	31.51
344.779	2.84
344.999	64.27
345.219	-19.69
345.439	64.27
345.658	21.27
345.878	88.85
346.098	45.84
346.318	47.89
346.537	41.75
346.757	25.36
346.977	51.99
347.196	23.32
347.416	-1.26
347.636	-9.45
347.855	109.33
348.075	-29.93
348.294	76.56
348.514	0.79
348.733	27.41
348.953	45.84
349.172	-38.12
349.392	88.85
349.611	51.99
349.83	11.03
350.05	21.27
350.269	60.18
350.488	15.12
350.707	-29.93
350.927	-17.64
351.146	84.75
351.365	-21.74
351.584	-9.45
351.803	33.56
352.023	19.22
352.242	58.13
352.461	21.27
352.68	17.17
352.899	-54.51
353.118	62.23
353.337	21.27
353.556	-1.26
353.775	4.88
353.993	21.27
354.212	8.98
354.431	97.04
354.65	-13.55
354.869	15.12
355.088	47.89
355.306	27.41
355.525	-5.36
355.744	0.79
355.962	-79.08
356.181	-7.4
356.4	-21.74
356.618	31.51
356.837	2.84
357.055	4.88
357.274	6.93
357.492	43.8
357.711	2.84
357.929	-5.36
358.148	45.84
358.366	-7.4
358.585	-5.36
358.803	56.08
359.021	103.19
359.24	27.41
359.458	25.36
359.676	-1.26
359.894	15.12
360.113	-3.31
360.331	-25.84
360.549	45.84
360.767	19.22
360.985	-60.65
361.203	-42.22
361.421	-42.22
361.639	13.08
361.857	80.66
362.075	39.7
362.293	80.66
362.511	35.6
362.729	56.08
362.947	43.8
363.165	2.84
363.383	8.98
363.601	88.85
363.819	-13.55
364.036	58.13
364.254	-5.36
364.472	-21.74
364.689	13.08
364.907	15.12
365.125	19.22
365.342	60.18
365.56	21.27
365.778	-46.32
365.995	-38.12
366.213	15.12
366.43	-23.79
366.648	13.08
366.865	62.23
367.083	68.37
367.3	31.51
367.517	43.8
367.735	-19.69
367.952	138
368.17	21.27
368.387	-5.36
368.604	82.71
368.821	-54.51
369.039	19.22
369.256	2.84
369.473	23.32
369.69	51.99
369.907	101.14
370.124	-44.27
370.341	-1.26
370.558	43.8
370.776	142.1
370.993	19.22
371.21	-19.69
371.426	19.22
371.643	-36.08
371.86	11.03
372.077	37.65
372.294	11.03
372.511	23.32
372.728	-54.51
372.945	0.79
373.161	4.88
373.378	-5.36
373.595	68.37
373.811	125.71
374.028	-25.84
374.245	49.94
374.461	-13.55
374.678	51.99
374.895	-27.88
375.111	68.37
375.328	19.22
375.544	27.41
375.761	-27.88
375.977	56.08
376.194	-5.36
376.41	-42.22
376.626	47.89
376.843	-17.64
377.059	17.17
377.275	-5.36
377.492	6.93
377.708	74.51
377.924	-13.55
378.14	-5.36
378.357	45.84
378.573	21.27
378.789	27.41
379.005	21.27
379.221	35.6
379.437	-52.46
379.653	29.46
379.869	-34.03
380.085	2.84
380.301	11.03
380.517	43.8
380.733	49.94
380.949	27.41
381.165	66.32
381.381	-27.88
381.597	2.84
381.813	45.84
382.028	-17.64
382.244	-25.84
382.46	29.46
382.676	-34.03
382.891	21.27
383.107	-11.5
383.323	25.36
383.538	11.03
383.754	101.14
383.969	-1.26
384.185	68.37
384.4	41.75
384.616	49.94
384.831	35.6
385.047	90.9
385.262	11.03
385.478	29.46
385.693	11.03
385.909	17.17
386.124	-11.5
386.339	-21.74
386.554	15.12
386.77	49.94
386.985	11.03
387.2	11.03
387.415	92.95
387.631	-23.79
387.846	-21.74
388.061	-27.88
388.276	17.17
388.491	45.84
388.706	-3.31
388.921	25.36
389.136	43.8
389.351	4.88
389.566	-38.12
389.781	68.37
389.996	37.65
390.211	-11.5
390.426	-36.08
390.641	-5.36
390.855	13.08
391.07	43.8
391.285	68.37
391.5	66.32
391.714	-25.84
391.929	37.65
392.144	27.41
392.358	13.08
392.573	29.46
392.788	13.08
393.002	80.66
393.217	27.41
393.431	6.93
393.646	68.37
393.86	-13.55
394.075	2.84
394.289	70.42
394.504	-9.45
394.718	27.41
394.933	68.37
395.147	142.1
395.361	54.03
395.576	19.22
395.79	35.6
396.004	23.32
396.218	41.75
396.432	56.08
396.647	27.41
396.861	11.03
397.075	23.32
397.289	37.65
397.503	-11.5
397.717	-5.36
397.931	-36.08
398.145	51.99
398.359	27.41
398.573	-115.95
398.787	-5.36
399.001	-31.98
399.215	54.03
399.429	47.89
399.643	-54.51
399.857	80.66
400.07	43.8
400.284	-23.79
400.498	23.32
400.712	-19.69
400.925	-11.5
401.139	43.8
401.353	-95.47
401.566	76.56
401.78	-3.31
401.994	17.17
402.207	43.8
402.421	-21.74
402.634	82.71
402.848	11.03
403.061	29.46
403.275	-29.93
403.488	56.08
403.702	35.6
403.915	-11.5
404.128	2.84
404.342	2.84
404.555	78.61
404.768	29.46
404.982	-21.74
405.195	54.03
405.408	15.12
405.621	43.8
405.835	-11.5
406.048	-11.5
406.261	25.36
406.474	-17.64
406.687	54.03
406.9	2.84
407.113	-81.13
407.326	27.41
407.539	-25.84
407.752	27.41
407.965	23.32
408.178	41.75
408.391	21.27
408.604	27.41
408.817	49.94
409.029	23.32
409.242	23.32
409.455	-23.79
409.668	31.51
409.881	-21.74
410.093	15.12
410.306	29.46
410.519	43.8
410.731	49.94
410.944	62.23
411.157	-34.03
411.369	-5.36
411.582	60.18
411.794	13.08
412.007	-5.36
412.219	2.84
412.432	-36.08
412.644	13.08
412.857	13.08
413.069	45.84
413.281	51.99
413.494	19.22
413.706	27.41
413.918	19.22
414.131	-3.31
414.343	45.84
414.555	17.17
414.767	-38.12
414.979	-5.36
415.192	-5.36
415.404	-25.84
415.616	29.46
415.828	-5.36
416.04	78.61
416.252	-17.64
416.464	-5.36
416.676	11.03
416.888	25.36
417.1	25.36
417.312	41.75
417.524	84.75
417.736	88.85
417.948	101.14
418.159	35.6
418.371	-25.84
418.583	31.51
418.795	2.84
419.007	82.71
419.218	76.56
419.43	-52.46
419.642	13.08
419.853	-25.84
420.065	51.99
420.276	13.08
420.488	43.8
420.7	23.32
420.911	-19.69
421.123	-13.55
421.334	29.46
421.546	-11.5
421.757	-31.98
421.969	51.99
422.18	39.7
422.391	-1.26
422.603	-27.88
422.814	62.23
423.025	27.41
423.237	41.75
423.448	37.65
423.659	-46.32
423.87	62.23
424.082	25.36
424.293	27.41
424.504	13.08
424.715	97.04
424.926	-36.08
425.137	54.03
425.348	84.75
425.559	68.37
425.77	15.12
425.981	23.32
426.192	11.03
426.403	68.37
426.614	27.41
426.825	43.8
427.036	6.93
427.247	-38.12
427.458	39.7
427.668	21.27
427.879	4.88
428.09	45.84
428.301	35.6
428.511	19.22
428.722	-19.69
428.933	80.66
429.143	31.51
429.354	-5.36
429.565	45.84
429.775	94.99
429.986	-13.55
430.196	33.56
430.407	-7.4
430.617	60.18
430.828	54.03
431.038	31.51
431.249	31.51
431.459	-38.12
431.669	-40.17
431.88	-9.45
432.09	35.6
432.3	39.7
432.511	45.84
432.721	45.84
432.931	-1.26
433.141	6.93
433.351	-5.36
433.562	70.42
433.772	33.56
433.982	47.89
434.192	39.7
434.402	88.85
434.612	-1.26
434.822	35.6
435.032	2.84
435.242	43.8
435.452	-29.93
435.662	19.22
435.872	109.33
436.082	19.22
436.292	25.36
436.502	29.46
436.711	-38.12
436.921	27.41
437.131	58.13
437.341	76.56
437.551	-13.55
437.76	68.37
437.97	39.7
438.18	-13.55
438.389	33.56
438.599	-13.55
438.808	78.61
439.018	29.46
439.228	-17.64
439.437	13.08
439.647	23.32
439.856	47.89
440.066	35.6
440.275	6.93
440.484	39.7
440.694	92.95
440.903	54.03
441.113	-29.93
441.322	19.22
441.531	-5.36
441.741	11.03
441.95	-25.84
442.159	6.93
442.368	21.27
442.577	6.93
442.787	-62.7
442.996	37.65
443.205	64.27
443.414	11.03
443.623	51.99
443.832	15.12
444.041	78.61
444.25	15.12
444.459	43.8
444.668	6.93
444.877	15.12
445.086	35.6
445.295	11.03
445.504	-11.5
445.713	78.61
445.922	41.75
446.13	-13.55
446.339	37.65
446.548	19.22
446.757	-11.5
446.965	41.75
447.174	-38.12
447.383	-50.41
447.591	19.22
447.8	11.03
448.009	43.8
448.217	62.23
448.426	-9.45
448.634	84.75
448.843	-5.36
449.051	31.51
449.26	11.03
449.468	15.12
449.677	19.22
449.885	17.17
450.093	54.03
450.302	11.03
450.51	23.32
450.719	23.32
450.927	15.12
451.135	27.41
451.343	23.32
451.552	2.84
451.76	15.12
451.968	43.8
452.176	-34.03
452.384	-44.27
452.592	72.47
452.8	27.41
453.009	-21.74
453.217	-25.84
453.425	-9.45
453.633	45.84
453.841	51.99
454.049	43.8
454.257	27.41
454.464	11.03
454.672	27.41
454.88	11.03
455.088	82.71
455.296	-5.36
455.504	15.12
455.711	2.84
455.919	-5.36
456.127	-36.08
456.335	11.03
456.542	19.22
456.75	-46.32
456.958	15.12
457.165	43.8
457.373	39.7
457.581	47.89
457.788	35.6
457.996	-79.08
458.203	-5.36
458.411	6.93
458.618	-1.26
458.826	-23.79
459.033	78.61
459.24	-15.6
459.448	76.56
459.655	72.47
459.863	121.62
460.07	103.19
460.277	56.08
460.484	60.18
460.692	-15.6
460.899	-13.55
461.106	-62.7
461.313	-1.26
461.52	-1.26
461.728	-27.88
461.935	27.41
462.142	11.03
462.349	-3.31
462.556	21.27
462.763	35.6
462.97	-5.36
463.177	-27.88
463.384	68.37
463.591	80.66
463.798	37.65
464.005	4.88
464.212	-38.12
464.418	-3.31
464.625	56.08
464.832	-13.55
465.039	-5.36
465.246	-19.69
465.452	43.8
465.659	-11.5
465.866	23.32
466.072	-54.51
466.279	51.99
466.486	-34.03
466.692	-1.26
466.899	-29.93
467.105	107.28
467.312	31.51
467.519	60.18
467.725	60.18
467.931	54.03
468.138	47.89
468.344	8.98
468.551	11.03
468.757	11.03
468.964	43.8
469.17	-3.31
469.376	43.8
469.583	31.51
469.789	4.88
469.995	76.56
470.201	27.41
470.408	23.32
470.614	60.18
470.82	-5.36
471.026	-58.6
471.232	6.93
471.438	25.36
471.644	17.17
471.85	29.46
472.056	68.37
472.262	84.75
472.468	35.6
472.674	62.23
472.88	45.84
473.086	-5.36
473.292	29.46
473.498	78.61
473.704	2.84
473.91	-21.74
474.116	62.23
474.321	66.32
474.527	13.08
474.733	70.42
474.939	27.41
475.144	21.27
475.35	27.41
475.556	15.12
475.761	-9.45
475.967	54.03
476.173	43.8
476.378	-1.26
476.584	29.46
476.789	6.93
476.995	27.41
477.2	29.46
477.406	21.27
477.611	4.88
477.817	43.8
478.022	41.75
478.227	19.22
478.433	-15.6
478.638	62.23
478.843	-5.36
479.049	86.8
479.254	-40.17
479.459	-62.7
479.664	37.65
479.87	-62.7
480.075	60.18
480.28	21.27
480.485	-21.74
480.69	-87.27
480.895	-44.27
481.1	-46.32
481.306	8.98
481.511	39.7
481.716	-19.69
481.921	-13.55
482.126	23.32
482.33	-25.84
482.535	-1.26
482.74	4.88
482.945	54.03
483.15	23.32
483.355	6.93
483.56	2.84
483.765	11.03
483.969	-29.93
484.174	-21.74
484.379	21.27
484.583	4.88
484.788	-58.6
484.993	-3.31
485.197	45.84
485.402	17.17
485.607	-11.5
485.811	33.56
486.016	-29.93
486.22	29.46
486.425	-11.5
486.629	13.08
486.834	51.99
487.038	56.08
487.243	-17.64
487.447	13.08
487.652	-13.55
487.856	4.88
488.06	-13.55
488.265	-5.36
488.469	-50.41
488.673	101.14
488.877	15.12
489.082	-9.45
489.286	-3.31
489.49	-27.88
489.694	-3.31
489.898	-29.93
490.102	31.51
490.307	-15.6
490.511	54.03
490.715	17.17
490.919	-34.03
491.123	27.41
491.327	21.27
491.531	-54.51
491.735	19.22
491.939	-52.46
492.143	80.66
492.346	19.22
492.55	29.46
492.754	11.03
492.958	4.88
493.162	21.27
493.366	60.18
493.569	21.27
493.773	54.03
493.977	23.32
494.18	11.03
494.384	27.41
494.588	140.05
494.791	25.36
494.995	-54.51
495.199	-27.88
495.402	35.6
495.606	15.12
495.809	0.79
496.013	25.36
496.216	76.56
496.42	-9.45
496.623	-34.03
496.827	29.46
497.03	-44.27
497.233	49.94
497.437	-13.55
497.64	-21.74
497.843	-21.74
498.047	84.75
498.25	11.03
498.453	80.66
498.656	31.51
498.86	19.22
499.063	92.95
499.266	-44.27
499.469	35.6
499.672	37.65
499.875	33.56
500.078	92.95
500.281	97.04
500.484	-17.64
500.687	47.89
500.89	68.37
501.093	-1.26
501.296	11.03
501.499	41.75
501.702	-27.88
501.905	-19.69
502.108	-40.17
502.311	56.08
502.514	-46.32
502.716	39.7
502.919	6.93
503.122	17.17
503.325	54.03
503.527	11.03
503.73	-1.26
503.933	19.22
504.135	-3.31
504.338	-21.74
504.541	-23.79
504.743	6.93
504.946	-9.45
505.148	-38.12
505.351	-11.5
505.553	11.03
505.756	-19.69
505.958	37.65
506.161	11.03
506.363	-25.84
506.565	-5.36
506.768	51.99
506.97	25.36
507.172	25.36
507.375	19.22
507.577	51.99
507.779	64.27
507.982	35.6
508.184	-19.69
508.386	-21.74
508.588	-13.55
508.79	13.08
508.993	-25.84
509.195	8.98
509.397	15.12
509.599	-21.74
509.801	68.37
510.003	-68.84
510.205	29.46
510.407	-91.37
510.609	51.99
510.811	56.08
511.013	17.17
511.215	54.03
511.417	23.32
511.618	13.08
511.82	13.08
512.022	33.56
512.224	35.6
512.426	88.85
512.627	-56.56
512.829	-5.36
513.031	68.37
513.233	-21.74
513.434	-21.74
513.636	37.65
513.838	101.14
514.039	-44.27
514.241	97.04
514.442	2.84
514.644	13.08
514.845	-68.84
515.047	27.41
515.248	-3.31
515.45	-27.88
515.651	-5.36
515.853	19.22
516.054	-13.55
516.256	60.18
516.457	33.56
516.658	11.03
516.86	19.22
517.061	-27.88
517.262	-31.98
517.463	2.84
517.665	35.6
517.866	35.6
518.067	-79.08
518.268	19.22
518.469	11.03
518.67	-19.69
518.872	51.99
519.073	-11.5
519.274	35.6
519.475	78.61
519.676	-58.6
519.877	51.99
520.078	74.51
520.279	54.03
520.48	-34.03
520.681	-40.17
520.881	15.12
521.082	-11.5
521.283	35.6
521.484	39.7
521.685	45.84
521.886	19.22
522.086	-46.32
522.287	15.12
522.488	-38.12
522.689	35.6
522.889	-9.45
523.09	13.08
523.291	-3.31
523.491	33.56
523.692	60.18
523.892	11.03
524.093	-46.32
524.294	4.88
524.494	43.8
524.695	47.89
524.895	51.99
525.096	-13.55
525.296	-13.55
525.496	11.03
525.697	15.12
525.897	60.18
526.098	-23.79
526.298	8.98
526.498	-3.31
526.699	31.51
526.899	-27.88
527.099	-25.84
527.299	-38.12
527.499	-15.6
527.7	-54.51
527.9	6.93
528.1	4.88
528.3	33.56
528.5	2.84
528.7	17.17
528.9	39.7
529.1	6.93
529.3	23.32
529.5	-62.7
529.7	23.32
529.9	-13.55
530.1	19.22
530.3	-9.45
530.5	-48.36
530.7	35.6
530.9	19.22
531.1	-3.31
531.3	41.75
531.499	2.84
531.699	-5.36
531.899	35.6
532.099	-9.45
532.298	39.7
532.498	6.93
532.698	43.8
532.897	35.6
533.097	11.03
533.297	64.27
533.496	35.6
533.696	-5.36
533.895	8.98
534.095	-9.45
534.294	2.84
534.494	49.94
534.693	13.08
534.893	15.12
535.092	11.03
535.292	-48.36
535.491	74.51
535.69	6.93
535.89	35.6
536.089	21.27
536.288	68.37
536.488	-19.69
536.687	-13.55
536.886	19.22
537.085	25.36
537.285	2.84
537.484	-15.6
537.683	62.23
537.882	45.84
538.081	-50.41
538.28	-1.26
538.479	-3.31
538.678	6.93
538.877	-54.51
539.076	6.93
539.275	58.13
539.474	43.8
539.673	-27.88
539.872	25.36
540.071	11.03
540.27	84.75
540.469	27.41
540.668	4.88
540.867	47.89
541.065	27.41
541.264	27.41
541.463	-11.5
541.662	-29.93
541.861	60.18
542.059	74.51
542.258	88.85
542.457	-25.84
542.655	-3.31
542.854	-25.84
543.052	-9.45
543.251	33.56
543.45	45.84
543.648	-40.17
543.847	35.6
544.045	-3.31
544.244	35.6
544.442	-7.4
544.641	21.27
544.839	-38.12
545.037	19.22
545.236	21.27
545.434	82.71
545.632	13.08
545.831	43.8
546.029	0.79
546.227	-21.74
546.426	47.89
546.624	31.51
546.822	-21.74
547.02	35.6
547.218	2.84
547.417	-13.55
547.615	17.17
547.813	43.8
548.011	-21.74
548.209	-34.03
548.407	-5.36
548.605	2.84
548.803	43.8
549.001	-42.22
549.199	-29.93
549.397	39.7
549.595	-34.03
549.793	2.84
549.991	6.93
550.189	27.41
550.387	-103.66
550.584	6.93
550.782	72.47
550.98	45.84
551.178	-7.4
551.376	2.84
551.573	-17.64
551.771	51.99
551.969	-5.36
552.166	29.46
552.364	11.03
552.562	35.6
552.759	80.66
552.957	23.32
553.154	-29.93
553.352	58.13
553.55	2.84
553.747	19.22
553.945	-3.31
554.142	15.12
554.339	45.84
554.537	6.93
554.734	23.32
554.932	-5.36
555.129	54.03
555.326	-3.31
555.524	51.99
555.721	2.84
555.918	19.22
556.116	13.08
556.313	35.6
556.51	80.66
556.707	72.47
556.904	62.23
557.102	-36.08
557.299	64.27
557.496	45.84
557.693	45.84
557.89	27.41
558.087	78.61
558.284	13.08
558.481	31.51
558.678	-81.13
558.875	-25.84
559.072	-7.4
559.269	60.18
559.466	6.93
559.663	15.12
559.86	11.03
560.057	2.84
560.254	-54.51
560.45	60.18
560.647	19.22
560.844	25.36
561.041	-29.93
561.237	72.47
561.434	-5.36
561.631	-38.12
561.828	11.03
562.024	-1.26
562.221	37.65
562.418	51.99
562.614	35.6
562.811	19.22
563.007	6.93
563.204	62.23
563.4	-27.88
563.597	27.41
563.793	0.79
563.99	-9.45
564.186	51.99
564.383	43.8
564.579	64.27
564.775	70.42
564.972	27.41
565.168	6.93
565.365	4.88
565.561	62.23
565.757	51.99
565.953	103.19
566.15	19.22
566.346	43.8
566.542	-17.64
566.738	-36.08
566.934	49.94
567.131	35.6
567.327	27.41
567.523	72.47
567.719	60.18
567.915	15.12
568.111	35.6
568.307	-13.55
568.503	2.84
568.699	11.03
568.895	-17.64
569.091	-21.74
569.287	-13.55
569.483	29.46
569.679	-46.32
569.875	13.08
570.07	-7.4
570.266	80.66
570.462	-38.12
570.658	27.41
570.854	-9.45
571.049	-3.31
571.245	8.98
571.441	37.65
571.636	-5.36
571.832	2.84
572.028	47.89
572.223	-17.64
572.419	-13.55
572.615	45.84
572.81	6.93
573.006	117.52
573.201	0.79
573.397	11.03
573.592	68.37
573.788	60.18
573.983	31.51
574.179	60.18
574.374	-44.27
574.569	2.84
574.765	15.12
574.96	82.71
575.156	49.94
575.351	37.65
575.546	45.84
575.741	6.93
575.937	-7.4
576.132	-40.17
576.327	39.7
576.522	2.84
576.718	-1.26
576.913	-38.12
577.108	84.75
577.303	84.75
577.498	-15.6
577.693	94.99
577.888	19.22
578.083	-17.64
578.278	-3.31
578.473	35.6
578.668	4.88
578.863	66.32
579.058	2.84
579.253	80.66
579.448	33.56
579.643	25.36
579.838	2.84
580.033	-13.55
580.227	27.41
580.422	-36.08
580.617	51.99
580.812	35.6
581.006	4.88
581.201	54.03
581.396	-9.45
581.591	-7.4
581.785	84.75
581.98	62.23
582.175	35.6
582.369	2.84
582.564	-29.93
582.758	17.17
582.953	64.27
583.147	-3.31
583.342	41.75
583.536	8.98
583.731	-27.88
583.925	43.8
584.12	-1.26
584.314	-11.5
584.509	45.84
584.703	25.36
584.897	78.61
585.092	-50.41
585.286	4.88
585.48	-5.36
585.674	21.27
585.869	-9.45
586.063	-13.55
586.257	-9.45
586.451	64.27
586.646	51.99
586.84	64.27
587.034	58.13
587.228	23.32
587.422	-5.36
587.616	27.41
587.81	45.84
588.004	45.84
588.198	-1.26
588.392	-3.31
588.586	-46.32
588.78	13.08
588.974	66.32
589.168	62.23
589.362	11.03
589.556	56.08
589.75	33.56
589.944	94.99
590.137	86.8
590.331	-27.88
590.525	35.6
590.719	45.84
590.913	58.13
591.106	-5.36
591.3	-5.36
591.494	64.27
591.687	-19.69
591.881	35.6
592.075	2.84
592.268	39.7
592.462	-27.88
592.655	29.46
592.849	0.79
593.043	39.7
593.236	64.27
593.43	23.32
593.623	54.03
593.817	-44.27
594.01	-27.88
594.203	-52.46
594.397	35.6
594.59	43.8
594.784	60.18
594.977	29.46
595.17	-38.12
595.364	-5.36
595.557	2.84
595.75	54.03
595.943	41.75
596.137	21.27
596.33	27.41
596.523	15.12
596.716	-9.45
596.909	-17.64
597.102	-3.31
597.296	45.84
597.489	2.84
597.682	-15.6
597.875	84.75
598.068	11.03
598.261	-15.6
598.454	76.56
598.647	41.75
598.84	-46.32
599.033	6.93
599.226	-13.55
599.419	23.32
599.611	35.6
599.804	29.46
599.997	-17.64
600.19	27.41
600.383	-29.93
600.576	11.03
600.768	15.12
600.961	19.22
601.154	27.41
601.347	25.36
601.539	0.79
601.732	39.7
601.925	-44.27
602.117	45.84
602.31	60.18
602.502	-54.51
602.695	41.75
602.888	62.23
603.08	60.18
603.273	23.32
603.465	105.23
603.658	19.22
603.85	-1.26
604.043	35.6
604.235	41.75
604.427	-11.5
604.62	76.56
604.812	19.22
605.004	60.18
605.197	13.08
605.389	-11.5
605.581	19.22
605.774	31.51
605.966	51.99
606.158	37.65
606.35	6.93
606.543	6.93
606.735	37.65
606.927	-1.26
607.119	11.03
607.311	21.27
607.503	-25.84
607.695	11.03
607.887	43.8
608.079	-9.45
608.271	21.27
608.463	47.89
608.655	45.84
608.847	-1.26
609.039	-29.93
609.231	68.37
609.423	-36.08
609.615	19.22
609.807	35.6
609.999	4.88
610.191	-1.26
610.382	11.03
610.574	101.14
610.766	47.89
610.958	35.6
611.15	39.7
611.341	2.84
611.533	-34.03
611.725	-1.26
611.916	-5.36
612.108	23.32
612.3	-77.04
612.491	51.99
612.683	-5.36
612.874	35.6
613.066	39.7
613.257	68.37
613.449	-72.94
613.64	113.43
613.832	43.8
614.023	68.37
614.215	11.03
614.406	-21.74
614.598	45.84
614.789	43.8
614.98	35.6
615.172	-11.5
615.363	11.03
615.554	11.03
615.746	84.75
615.937	6.93
616.128	13.08
616.319	94.99
616.511	27.41
616.702	-21.74
616.893	-17.64
617.084	-52.46
617.275	60.18
617.466	29.46
617.658	-13.55
617.849	19.22
618.04	35.6
618.231	21.27
618.422	-5.36
618.613	27.41
618.804	2.84
618.995	88.85
619.186	-25.84
619.377	-21.74
619.568	-29.93
619.758	6.93
619.949	6.93
620.14	-13.55
620.331	29.46
620.522	17.17
620.713	13.08
620.903	-21.74
621.094	-3.31
621.285	56.08
621.476	27.41
621.666	15.12
621.857	-5.36
622.048	6.93
622.238	64.27
622.429	27.41
622.62	74.51
622.81	47.89
623.001	-34.03
623.191	68.37
623.382	29.46
623.572	-50.41
623.763	13.08
623.953	86.8
624.144	4.88
624.334	-46.32
624.525	-40.17
624.715	17.17
624.905	23.32
625.096	56.08
625.286	-17.64
625.477	-19.69
625.667	35.6
625.857	17.17
626.047	6.93
626.238	35.6
626.428	35.6
626.618	47.89
626.808	2.84
626.999	27.41
627.189	47.89
627.379	23.32
627.569	-17.64
627.759	2.84
627.949	2.84
628.139	-44.27
628.329	154.39
628.519	86.8
628.709	-3.31
628.899	78.61
629.089	23.32
629.279	-34.03
629.469	84.75
629.659	-13.55
629.849	35.6
630.039	-23.79
630.229	54.03
630.419	31.51
630.609	-29.93
630.798	31.51
630.988	4.88
631.178	21.27
631.368	76.56
631.557	-93.42
631.747	4.88
631.937	-38.12
632.127	4.88
632.316	94.99
632.506	-7.4
632.696	-29.93
632.885	43.8
633.075	58.13
633.264	37.65
633.454	2.84
633.643	27.41
633.833	-5.36
634.022	27.41
634.212	92.95
634.401	-11.5
634.591	29.46
634.78	88.85
634.97	-5.36
635.159	31.51
635.348	-13.55
635.538	2.84
635.727	60.18
635.916	27.41
636.106	-36.08
636.295	-36.08
636.484	-25.84
636.674	-13.55
636.863	11.03
637.052	-3.31
637.241	45.84
637.43	6.93
637.619	23.32
637.809	-13.55
637.998	27.41
638.187	29.46
638.376	54.03
638.565	11.03
638.754	29.46
638.943	-42.22
639.132	8.98
639.321	-29.93
639.51	-11.5
639.699	-13.55
639.888	-13.55
640.077	-1.26
640.266	-9.45
640.455	31.51
640.643	-72.94
640.832	-21.74
641.021	51.99
641.21	19.22
641.399	23.32
641.587	64.27
641.776	4.88
641.965	51.99
642.154	27.41
642.342	-13.55
642.531	97.04
642.72	23.32
642.908	43.8
643.097	64.27
643.286	54.03
643.474	4.88
643.663	35.6
643.851	-11.5
644.04	-9.45
644.228	11.03
644.417	-3.31
644.605	45.84
644.794	29.46
644.982	4.88
645.171	27.41
645.359	15.12
645.547	27.41
645.736	-11.5
645.924	-29.93
646.112	-44.27
646.301	27.41
646.489	54.03
646.677	-34.03
646.866	-91.37
647.054	54.03
647.242	27.41
647.43	-21.74
647.618	54.03
647.807	70.42
647.995	-66.8
648.183	60.18
648.371	-5.36
648.559	-38.12
648.747	-5.36
648.935	-15.6
649.123	-23.79
649.311	23.32
649.499	19.22
649.687	47.89
649.875	82.71
650.063	-56.56
650.251	43.8
650.439	76.56
650.627	27.41
650.815	84.75
651.003	19.22
651.191	-21.74
651.378	-17.64
651.566	86.8
651.754	51.99
651.942	-17.64
652.13	60.18
652.317	15.12
652.505	56.08
652.693	80.66
652.88	62.23
653.068	-25.84
653.256	41.75
653.443	70.42
653.631	-62.7
653.819	23.32
654.006	-21.74
654.194	35.6
654.381	43.8
654.569	4.88
654.756	51.99
654.944	-36.08
655.131	15.12
655.319	105.23
655.506	-5.36
655.693	-23.79
655.881	15.12
656.068	84.75
656.256	-3.31
656.443	-15.6
656.63	35.6
656.818	56.08
657.005	31.51
657.192	-25.84
657.379	11.03
657.567	64.27
657.754	2.84
657.941	49.94
658.128	15.12
658.315	-9.45
658.502	76.56
658.69	-21.74
658.877	17.17
659.064	39.7
659.251	56.08
659.438	4.88
659.625	4.88
659.812	47.89
659.999	60.18
660.186	111.38
660.373	6.93
660.56	-17.64
660.747	37.65
660.934	-29.93
661.121	-25.84
661.308	29.46
661.494	15.12
661.681	76.56
661.868	15.12
662.055	54.03
662.242	-11.5
662.428	62.23
662.615	-13.55
662.802	64.27
662.989	-17.64
663.175	-23.79
663.362	2.84
663.549	2.84
663.735	-13.55
663.922	-27.88
664.109	-23.79
664.295	64.27
664.482	29.46
664.668	23.32
664.855	-36.08
665.041	29.46
665.228	6.93
665.414	11.03
665.601	84.75
665.787	68.37
665.974	43.8
666.16	2.84
666.347	4.88
666.533	19.22
666.719	-29.93
666.906	35.6
667.092	43.8
667.278	-5.36
667.465	43.8
667.651	-3.31
667.837	11.03
668.023	49.94
668.21	35.6
668.396	27.41
668.582	-13.55
668.768	19.22
668.954	27.41
669.14	-17.64
669.327	-40.17
669.513	-5.36
669.699	-34.03
669.885	-38.12
670.071	-5.36
670.257	13.08
670.443	43.8
670.629	-19.69
670.815	43.8
671.001	-62.7
671.187	27.41
671.373	-19.69
671.559	-25.84
671.744	43.8
671.93	27.41
672.116	13.08
672.302	21.27
672.488	-1.26
672.674	2.84
672.859	62.23
673.045	-50.41
673.231	-11.5
673.417	-5.36
673.602	84.75
673.788	-5.36
673.974	19.22
674.159	-54.51
674.345	15.12
674.531	62.23
674.716	-15.6
674.902	70.42
675.087	-34.03
675.273	43.8
675.459	11.03
675.644	-38.12
675.83	27.41
676.015	19.22
676.2	-62.7
676.386	27.41
676.571	78.61
676.757	13.08
676.942	35.6
677.128	4.88
677.313	35.6
677.498	31.51
677.684	4.88
677.869	-44.27
678.054	-11.5
678.24	51.99
678.425	2.84
678.61	11.03
678.795	45.84
678.98	8.98
679.166	62.23
679.351	-9.45
679.536	80.66
679.721	-11.5
679.906	23.32
680.091	-21.74
680.276	19.22
680.461	31.51
680.647	-34.03
680.832	33.56
681.017	68.37
681.202	31.51
681.387	-27.88
681.572	72.47
681.756	62.23
681.941	0.79
682.126	94.99
682.311	21.27
682.496	31.51
682.681	-3.31
682.866	-1.26
683.051	-11.5
683.235	-3.31
683.42	-36.08
683.605	-21.74
683.79	76.56
683.974	-17.64
684.159	56.08
684.344	64.27
684.529	-1.26
684.713	-9.45
684.898	60.18
685.083	103.19
685.267	13.08
685.452	-11.5
685.636	62.23
685.821	70.42
686.005	8.98
686.19	56.08
686.375	68.37
686.559	-13.55
686.744	29.46
686.928	-54.51
687.112	47.89
687.297	45.84
687.481	19.22
687.666	-31.98
687.85	23.32
688.034	-5.36
688.219	31.51
688.403	13.08
688.587	86.8
688.772	-29.93
688.956	2.84
689.14	15.12
689.324	35.6
689.509	6.93
689.693	56.08
689.877	-36.08
690.061	29.46
690.245	35.6
690.43	29.46
690.614	62.23
690.798	58.13
690.982	72.47
691.166	-29.93
691.35	19.22
691.534	54.03
691.718	47.89
691.902	2.84
692.086	23.32
692.27	21.27
692.454	11.03
692.638	23.32
692.822	-1.26
693.006	27.41
693.19	43.8
693.373	2.84
693.557	43.8
693.741	0.79
693.925	-13.55
694.109	45.84
694.293	-50.41
694.476	11.03
694.66	-29.93
694.844	35.6
695.027	35.6
695.211	35.6
695.395	19.22
695.578	27.41
695.762	64.27
695.946	70.42
696.129	-23.79
696.313	-1.26
696.497	11.03
696.68	97.04
696.864	-1.26
697.047	11.03
697.231	45.84
697.414	-5.36
697.598	-1.26
697.781	105.23
697.965	37.65
698.148	47.89
698.331	35.6
698.515	23.32
698.698	-13.55
698.881	27.41
699.065	2.84
699.248	4.88
699.431	45.84
699.615	19.22
699.798	27.41
699.981	-21.74
700.165	88.85
700.348	6.93
700.531	2.84
700.714	15.12
700.897	-44.27
701.08	19.22
701.264	4.88
701.447	-17.64
701.63	56.08
701.813	43.8
701.996	11.03
702.179	-17.64
702.362	29.46
702.545	-46.32
702.728	78.61
702.911	35.6
703.094	-27.88
703.277	-13.55
703.46	13.08
703.643	56.08
703.826	19.22
704.009	-38.12
704.191	54.03
704.374	70.42
704.557	-17.64
704.74	84.75
704.923	35.6
705.106	-36.08
705.288	6.93
705.471	-23.79
705.654	76.56
705.837	-3.31
706.019	31.51
706.202	-3.31
706.385	51.99
706.567	54.03
706.75	66.32
706.932	11.03
707.115	2.84
707.298	6.93
707.48	0.79
707.663	-25.84
707.845	45.84
708.028	-21.74
708.21	-11.5
708.393	25.36
708.575	43.8
708.758	43.8
708.94	23.32
709.123	19.22
709.305	82.71
709.487	27.41
709.67	-11.5
709.852	4.88
710.034	51.99
710.217	60.18
710.399	47.89
710.581	17.17
710.764	27.41
710.946	11.03
711.128	45.84
711.31	-50.41
711.492	68.37
711.675	2.84
711.857	19.22
712.039	56.08
712.221	-21.74
712.403	62.23
712.585	43.8
712.767	23.32
712.949	74.51
713.131	4.88
713.314	-19.69
713.496	-44.27
713.678	15.12
713.86	4.88
714.041	19.22
714.223	119.57
714.405	-19.69
714.587	13.08
714.769	35.6
714.951	58.13
715.133	0.79
715.315	19.22
715.497	92.95
715.678	43.8
715.86	70.42
716.042	6.93
716.224	17.17
716.406	43.8
716.587	27.41
716.769	-27.88
716.951	23.32
717.132	31.51
717.314	88.85
717.496	49.94
717.677	-36.08
717.859	11.03
718.041	27.41
718.222	74.51
718.404	-29.93
718.585	-17.64
718.767	27.41
718.948	6.93
719.13	-42.22
719.311	0.79
719.493	35.6
719.674	15.12
719.856	60.18
720.037	-27.88
720.219	43.8
720.4	35.6
720.581	27.41
720.763	-13.55
720.944	56.08
721.125	4.88
721.307	-9.45
721.488	45.84
721.669	-5.36
721.85	-50.41
722.032	-17.64
722.213	19.22
722.394	-52.46
722.575	31.51
722.756	15.12
722.938	37.65
723.119	-29.93
723.3	-29.93
723.481	-36.08
723.662	41.75
723.843	72.47
724.024	23.32
724.205	84.75
724.386	54.03
724.567	-36.08
724.748	-38.12
724.929	-3.31
725.11	-70.89
725.291	23.32
725.472	-38.12
725.653	33.56
725.834	6.93
726.015	43.8
726.196	51.99
726.377	68.37
726.557	62.23
726.738	11.03
726.919	49.94
727.1	51.99
727.281	-48.36
727.461	84.75
727.642	2.84
727.823	-25.84
728.004	92.95
728.184	11.03
728.365	-11.5
728.546	64.27
728.726	94.99
728.907	62.23
729.087	-5.36
729.268	-29.93
729.449	35.6
729.629	13.08
729.81	-27.88
729.99	41.75
730.171	8.98
730.351	19.22
730.532	84.75
730.712	94.99
730.893	103.19
731.073	19.22
731.253	64.27
731.434	43.8
731.614	35.6
731.795	-13.55
731.975	-36.08
732.155	54.03
732.336	45.84
732.516	-44.27
732.696	21.27
732.876	-17.64
733.057	-27.88
733.237	39.7
733.417	-13.55
733.597	-5.36
733.778	70.42
733.958	21.27
734.138	-17.64
734.318	11.03
734.498	68.37
734.678	-34.03
734.858	17.17
735.038	-25.84
735.218	19.22
735.398	2.84
735.579	2.84
735.759	-25.84
735.939	105.23
736.119	47.89
736.298	4.88
736.478	94.99
736.658	11.03
736.838	19.22
737.018	-17.64
737.198	0.79
737.378	-3.31
737.558	51.99
737.738	-3.31
737.917	-27.88
738.097	-70.89
738.277	2.84
738.457	58.13
738.637	39.7
738.816	35.6
738.996	-1.26
739.176	-29.93
739.355	37.65
739.535	27.41
739.715	62.23
739.894	31.51
740.074	51.99
740.254	-9.45
740.433	39.7
740.613	-21.74
740.792	-7.4
740.972	4.88
741.151	8.98
741.331	-38.12
741.51	43.8
741.69	-11.5
741.869	13.08
742.049	-1.26
742.228	31.51
742.408	68.37
742.587	58.13
742.766	-29.93
742.946	19.22
743.125	-34.03
743.305	11.03
743.484	17.17
743.663	101.14
743.842	-11.5
744.022	-9.45
744.201	21.27
744.38	-13.55
744.56	-25.84
744.739	8.98
744.918	2.84
745.097	21.27
745.276	2.84
745.455	13.08
745.635	-42.22
745.814	2.84
745.993	13.08
746.172	23.32
746.351	-34.03
746.53	-9.45
746.709	115.47
746.888	13.08
747.067	-9.45
747.246	-13.55
747.425	31.51
747.604	-34.03
747.783	-5.36
747.962	54.03
748.141	11.03
748.32	13.08
748.499	60.18
748.677	51.99
748.856	31.51
749.035	-19.69
749.214	76.56
749.393	60.18
749.572	68.37
749.75	47.89
749.929	-19.69
750.108	35.6
750.287	51.99
750.465	13.08
750.644	-29.93
750.823	19.22
751.001	6.93
751.18	-1.26
751.359	-9.45
751.537	37.65
751.716	-1.26
751.894	78.61
752.073	19.22
752.251	19.22
752.43	31.51
752.609	64.27
752.787	-19.69
752.966	-54.51
753.144	54.03
753.322	19.22
753.501	6.93
753.679	2.84
753.858	64.27
754.036	45.84
754.215	-44.27
754.393	23.32
754.571	-38.12
754.75	11.03
754.928	-15.6
755.106	39.7
755.284	-29.93
755.463	-5.36
755.641	43.8
755.819	6.93
755.997	2.84
756.176	72.47
756.354	109.33
756.532	13.08
756.71	11.03
756.888	-46.32
757.066	74.51
757.245	21.27
757.423	-54.51
757.601	76.56
757.779	19.22
757.957	54.03
758.135	-7.4
758.313	51.99
758.491	78.61
758.669	43.8
758.847	-1.26
759.025	31.51
759.203	11.03
759.381	19.22
759.559	19.22
759.737	37.65
759.915	47.89
760.092	35.6
760.27	60.18
760.448	33.56
760.626	-25.84
760.804	-13.55
760.981	6.93
761.159	11.03
761.337	70.42
761.515	56.08
761.692	-11.5
761.87	76.56
762.048	-19.69
762.226	19.22
762.403	37.65
762.581	21.27
762.759	-19.69
762.936	2.84
763.114	37.65
763.291	64.27
763.469	43.8
763.647	29.46
763.824	2.84
764.002	-36.08
764.179	54.03
764.357	51.99
764.534	-3.31
764.712	4.88
764.889	25.36
765.066	31.51
765.244	-46.32
765.421	-21.74
765.599	47.89
765.776	21.27
765.953	15.12
766.131	-13.55
766.308	64.27
766.485	-3.31
766.663	-29.93
766.84	-9.45
767.017	37.65
767.194	-13.55
767.372	-11.5
767.549	39.7
767.726	-29.93
767.903	-38.12
768.081	-21.74
768.258	31.51
768.435	39.7
768.612	-44.27
768.789	23.32
768.966	-9.45
769.143	13.08
769.32	-36.08
769.497	80.66
769.674	29.46
769.851	-93.42
770.028	-9.45
770.205	62.23
770.382	6.93
770.559	-46.32
770.736	-3.31
770.913	45.84
771.09	33.56
771.267	-15.6
771.444	39.7
771.621	15.12
771.798	49.94
771.975	62.23
772.151	-5.36
772.328	2.84
772.505	-5.36
772.682	78.61
772.859	13.08
773.035	31.51
773.212	-13.55
773.389	-13.55
773.565	-19.69
773.742	-44.27
773.919	2.84
774.096	-25.84
774.272	-52.46
774.449	76.56
774.625	66.32
774.802	86.8
774.979	-31.98
775.155	13.08
775.332	56.08
775.508	15.12
775.685	27.41
775.861	-42.22
776.038	23.32
776.214	2.84
776.391	68.37
776.567	27.41
776.744	84.75
776.92	-101.61
777.096	-1.26
777.273	25.36
777.449	45.84
777.626	-42.22
777.802	27.41
777.978	27.41
778.155	19.22
778.331	35.6
778.507	23.32
778.683	33.56
778.86	13.08
779.036	-38.12
779.212	23.32
779.388	56.08
779.565	-3.31
779.741	88.85
779.917	21.27
780.093	-3.31
780.269	97.04
780.445	-25.84
780.621	72.47
780.797	2.84
780.974	4.88
781.15	47.89
781.326	56.08
781.502	-95.47
781.678	23.32
781.854	-1.26
782.03	4.88
782.206	51.99
782.382	-3.31
782.558	11.03
782.733	-13.55
782.909	-11.5
783.085	35.6
783.261	-31.98
783.437	51.99
783.613	13.08
783.789	19.22
783.965	-19.69
784.14	29.46
784.316	19.22
784.492	-1.26
784.668	23.32
784.843	-5.36
785.019	11.03
785.195	-9.45
785.371	-3.31
785.546	54.03
785.722	2.84
785.898	45.84
786.073	51.99
786.249	64.27
786.424	-29.93
786.6	76.56
786.776	27.41
786.951	-25.84
787.127	-46.32
787.302	19.22
787.478	35.6
787.653	62.23
787.829	-29.93
788.004	-42.22
788.18	43.8
788.355	-21.74
788.531	-21.74
788.706	56.08
788.881	13.08
789.057	84.75
789.232	15.12
789.408	27.41
789.583	15.12
789.758	-7.4
789.934	11.03
790.109	47.89
790.284	27.41
790.459	-17.64
790.635	37.65
790.81	2.84
790.985	-5.36
791.16	-27.88
791.336	21.27
791.511	-27.88
791.686	-58.6
791.861	-3.31
792.036	-13.55
792.211	0.79
792.387	39.7
792.562	158.48
792.737	35.6
792.912	27.41
793.087	-40.17
793.262	25.36
793.437	78.61
793.612	76.56
793.787	43.8
793.962	62.23
794.137	-19.69
794.312	45.84
794.487	-58.6
794.662	-1.26
794.837	-97.51
795.011	68.37
795.186	-13.55
795.361	43.8
795.536	-9.45
795.711	11.03
795.886	-5.36
796.06	43.8
796.235	6.93
796.41	2.84
796.585	-13.55
796.76	35.6
796.934	-70.89
797.109	-11.5
797.284	43.8
797.458	-42.22
797.633	80.66
797.808	27.41
797.982	-5.36
798.157	31.51
798.332	35.6
798.506	19.22
798.681	-62.7
798.855	-5.36
799.03	43.8
799.204	-21.74
799.379	45.84
799.553	13.08
799.728	11.03
799.902	-74.99
800.077	-13.55
800.251	43.8
800.426	-13.55
800.6	-13.55
800.775	-27.88
800.949	-17.64
801.123	-36.08
801.298	-9.45
801.472	27.41
801.647	-5.36
801.821	-58.6
801.995	15.12
802.169	-13.55
802.344	-38.12
802.518	35.6
802.692	25.36
802.867	37.65
803.041	27.41
803.215	15.12
803.389	39.7
803.563	47.89
803.737	76.56
803.912	2.84
804.086	27.41
804.26	-9.45
804.434	11.03
804.608	35.6
804.782	19.22
804.956	66.32
805.13	21.27
805.304	29.46
805.478	78.61
805.652	51.99
805.826	23.32
806	6.93
806.174	90.9
806.348	-70.89
806.522	43.8
806.696	-1.26
806.87	19.22
807.044	21.27
807.218	43.8
807.392	-7.4
807.566	29.46
807.739	15.12
807.913	-1.26
808.087	8.98
808.261	33.56
808.435	80.66
808.608	-77.04
808.782	-17.64
808.956	27.41
809.13	35.6
809.303	-29.93
809.477	-25.84
809.651	-5.36
809.824	-54.51
809.998	113.43
810.172	29.46
810.345	107.28
810.519	27.41
810.692	11.03
810.866	-38.12
811.04	2.84
811.213	19.22
811.387	51.99
811.56	4.88
811.734	-68.84
811.907	11.03
812.081	13.08
812.254	27.41
812.428	-25.84
812.601	43.8
812.774	15.12
812.948	35.6
813.121	-21.74
813.295	47.89
813.468	58.13
813.641	11.03
813.815	-3.31
813.988	49.94
814.161	60.18
814.335	-21.74
814.508	94.99
814.681	6.93
814.854	-9.45
815.028	17.17
815.201	35.6
815.374	76.56
815.547	76.56
815.72	29.46
815.894	-44.27
816.067	54.03
816.24	-1.26
816.413	80.66
816.586	11.03
816.759	11.03
816.932	35.6
817.105	-9.45
817.278	-17.64
817.452	23.32
817.625	60.18
817.798	29.46
817.971	-21.74
818.144	88.85
818.317	54.03
818.49	-58.6
818.662	15.12
818.835	-1.26
819.008	58.13
819.181	15.12
819.354	23.32
819.527	37.65
819.7	29.46
819.873	-5.36
820.046	68.37
820.218	-21.74
820.391	6.93
820.564	0.79
820.737	99.09
820.909	27.41
821.082	23.32
821.255	2.84
821.428	11.03
821.6	47.89
821.773	17.17
821.946	21.27
822.118	2.84
822.291	33.56
822.464	56.08
822.636	2.84
822.809	21.27
822.982	23.32
823.154	27.41
823.327	-11.5
823.499	17.17
823.672	-13.55
823.844	-17.64
824.017	19.22
824.189	43.8
824.362	62.23
824.534	62.23
824.707	4.88
824.879	-50.41
825.052	56.08
825.224	2.84
825.396	-5.36
825.569	4.88
825.741	2.84
825.914	54.03
826.086	-38.12
826.258	51.99
826.431	23.32
826.603	54.03
826.775	2.84
826.947	2.84
827.12	64.27
827.292	68.37
827.464	-5.36
827.636	-27.88
827.809	-29.93
827.981	13.08
828.153	-31.98
828.325	2.84
828.497	45.84
828.669	51.99
828.842	33.56
829.014	-13.55
829.186	17.17
829.358	90.9
829.53	-40.17
829.702	21.27
829.874	-17.64
830.046	-11.5
830.218	56.08
830.39	-25.84
830.562	-62.7
830.734	35.6
830.906	11.03
831.078	47.89
831.25	51.99
831.422	6.93
831.594	43.8
831.766	60.18
831.937	-25.84
832.109	60.18
832.281	51.99
832.453	-29.93
832.625	31.51
832.797	62.23
832.968	17.17
833.14	6.93
833.312	31.51
833.484	-9.45
833.655	35.6
833.827	29.46
833.999	43.8
834.171	51.99
834.342	11.03
834.514	2.84
834.686	-5.36
834.857	33.56
835.029	-68.84
835.2	56.08
835.372	19.22
835.544	21.27
835.715	68.37
835.887	-25.84
836.058	29.46
836.23	25.36
836.401	17.17
836.573	0.79
836.744	23.32
836.916	35.6
837.087	23.32
837.259	29.46
837.43	27.41
837.602	-13.55
837.773	62.23
837.945	19.22
838.116	37.65
838.287	-58.6
838.459	-46.32
838.63	154.39
838.801	-9.45
838.973	-5.36
839.144	-7.4
839.315	27.41
839.487	-107.75
839.658	-9.45
839.829	-62.7
840	35.6
840.172	-36.08
840.343	88.85
840.514	-54.51
840.685	-36.08
840.856	-62.7
841.027	23.32
841.199	-44.27
841.37	-21.74
841.541	86.8
841.712	11.03
841.883	-5.36
842.054	-7.4
842.225	21.27
842.396	27.41
842.567	64.27
842.738	6.93
842.909	-9.45
843.08	27.41
843.251	-3.31
843.422	92.95
843.593	31.51
843.764	2.84
843.935	37.65
844.106	76.56
844.277	51.99
844.448	97.04
844.619	-38.12
844.79	2.84
844.96	84.75
845.131	60.18
845.302	-11.5
845.473	-46.32
845.644	-21.74
845.814	15.12
845.985	51.99
846.156	31.51
846.327	-19.69
846.497	-13.55
846.668	6.93
846.839	-5.36
847.01	-62.7
847.18	-62.7
847.351	35.6
847.522	35.6
847.692	-34.03
847.863	-21.74
848.033	27.41
848.204	76.56
848.375	-44.27
848.545	-13.55
848.716	13.08
848.886	19.22
849.057	19.22
849.227	70.42
849.398	15.12
849.568	11.03
849.739	23.32
849.909	11.03
850.08	-1.26
850.25	29.46
850.421	4.88
850.591	27.41
850.761	-7.4
850.932	88.85
851.102	4.88
851.272	-3.31
851.443	0.79
851.613	31.51
851.783	19.22
851.954	62.23
852.124	11.03
852.294	37.65
852.465	-5.36
852.635	27.41
852.805	58.13
852.975	-9.45
853.145	-15.6
853.316	13.08
853.486	19.22
853.656	68.37
853.826	-7.4
853.996	23.32
854.166	31.51
854.337	-9.45
854.507	-40.17
854.677	13.08
854.847	45.84
855.017	-25.84
855.187	60.18
855.357	25.36
855.527	-27.88
855.697	11.03
855.867	35.6
856.037	11.03
856.207	-38.12
856.377	39.7
856.547	-46.32
856.717	76.56
856.887	-13.55
857.057	68.37
857.227	-38.12
857.397	-38.12
857.566	35.6
857.736	62.23
857.906	27.41
858.076	2.84
858.246	35.6
858.416	-17.64
858.585	-5.36
858.755	27.41
858.925	-21.74
859.095	-36.08
859.264	19.22
859.434	68.37
859.604	39.7
859.774	13.08
859.943	-21.74
860.113	-5.36
860.283	27.41
860.452	-25.84
860.622	6.93
860.791	6.93
860.961	45.84
861.131	62.23
861.3	17.17
861.47	56.08
861.639	-23.79
861.809	62.23
861.978	-13.55
862.148	66.32
862.318	43.8
862.487	35.6
862.657	70.42
862.826	-13.55
862.995	-11.5
863.165	121.62
863.334	-13.55
863.504	31.51
863.673	-3.31
863.843	47.89
864.012	-3.31
864.181	76.56
864.351	60.18
864.52	23.32
864.689	60.18
864.859	51.99
865.028	109.33
865.197	-3.31
865.366	2.84
865.536	19.22
865.705	-5.36
865.874	19.22
866.043	70.42
866.213	-38.12
866.382	43.8
866.551	2.84
866.72	47.89
866.889	2.84
867.059	35.6
867.228	27.41
867.397	-19.69
867.566	-13.55
867.735	86.8
867.904	2.84
868.073	-46.32
868.242	60.18
868.411	-17.64
868.58	21.27
868.749	13.08
868.918	15.12
869.087	-3.31
869.256	37.65
869.425	51.99
869.594	29.46
869.763	29.46
869.932	23.32
870.101	45.84
870.27	-21.74
870.439	39.7
870.608	47.89
870.777	-38.12
870.945	82.71
871.114	2.84
871.283	62.23
871.452	11.03
871.621	-46.32
871.789	43.8
871.958	6.93
872.127	-1.26
872.296	-11.5
872.464	70.42
872.633	35.6
872.802	15.12
872.971	35.6
873.139	-21.74
873.308	68.37
873.477	-3.31
873.645	11.03
873.814	56.08
873.983	31.51
874.151	-27.88
874.32	35.6
874.488	25.36
874.657	-17.64
874.826	35.6
874.994	-19.69
875.163	51.99
875.331	-34.03
875.5	-34.03
875.668	-42.22
875.837	19.22
876.005	94.99
876.174	13.08
876.342	62.23
876.51	78.61
876.679	6.93
876.847	25.36
877.016	27.41
877.184	23.32
877.352	23.32
877.521	35.6
877.689	35.6
877.857	-9.45
878.026	43.8
878.194	-27.88
878.362	19.22
878.531	27.41
878.699	19.22
878.867	39.7
879.036	35.6
879.204	8.98
879.372	-52.46
879.54	19.22
879.708	72.47
879.877	23.32
880.045	35.6
880.213	4.88
880.381	-13.55
880.549	84.75
880.717	45.84
880.885	13.08
881.054	86.8
881.222	2.84
881.39	33.56
881.558	51.99
881.726	11.03
881.894	27.41
882.062	-13.55
882.23	29.46
882.398	84.75
882.566	23.32
882.734	23.32
882.902	-21.74
883.07	-25.84
883.238	49.94
883.406	47.89
883.574	-5.36
883.741	-34.03
883.909	109.33
884.077	43.8
884.245	35.6
884.413	-9.45
884.581	-15.6
884.749	35.6
884.916	8.98
885.084	23.32
885.252	72.47
885.42	19.22
885.587	-25.84
885.755	60.18
885.923	15.12
886.091	11.03
886.258	-3.31
886.426	11.03
886.594	11.03
886.761	-5.36
886.929	51.99
887.097	-46.32
887.264	49.94
887.432	23.32
887.6	25.36
887.767	15.12
887.935	125.71
888.102	97.04
888.27	13.08
888.438	-5.36
888.605	-38.12
888.773	27.41
888.94	60.18
889.108	19.22
889.275	-34.03
889.443	-11.5
889.61	35.6
889.778	-27.88
889.945	33.56
890.112	17.17
890.28	51.99
890.447	70.42
890.615	2.84
890.782	97.04
890.949	29.46
891.117	-66.8
891.284	54.03
891.452	37.65
891.619	35.6
891.786	15.12
891.953	25.36
892.121	25.36
892.288	-25.84
892.455	-70.89
892.623	31.51
892.79	-5.36
892.957	-3.31
893.124	-27.88
893.291	-46.32
893.459	15.12
893.626	31.51
893.793	68.37
893.96	-54.51
894.127	76.56
894.294	15.12
894.461	-27.88
894.629	-1.26
894.796	-27.88
894.963	47.89
895.13	6.93
895.297	-48.36
895.464	43.8
895.631	47.89
895.798	2.84
895.965	35.6
896.132	17.17
896.299	27.41
896.466	-9.45
896.633	-13.55
896.8	19.22
896.967	4.88
897.134	33.56
897.301	94.99
897.467	-29.93
897.634	21.27
897.801	-21.74
897.968	-34.03
898.135	21.27
898.302	-11.5
898.469	51.99
898.635	6.93
898.802	-29.93
898.969	-34.03
899.136	19.22
899.303	19.22
