Data from dark_USB4E013581_00012.txt Node
Date: Wed May 08 15:05:46 EDT 2019
User: dh1006
Spectrometer: USB4E01358
Autoset integration time: false
Trigger mode: 4
Integration Time (sec): 2.925000E-2
Scans to average: 1
Electric dark correction enabled: true
Nonlinearity correction enabled: false
Boxcar width: 0
Stray light correction enabled: false
XAxis mode: Wavelengths
Stop averaging: false
Number of Pixels in Spectrum: 3648
>>>>>Begin Spectral Data<<<<<
176.727	-94.05
176.966	-94.05
177.205	-94.05
177.444	20.64
177.683	-32.61
177.922	26.78
178.161	116.89
178.4	32.93
178.638	8.35
178.877	39.07
179.116	-14.18
179.355	71.84
179.593	12.45
179.832	86.17
180.071	16.54
180.309	57.5
180.548	49.31
180.786	34.97
181.025	53.4
181.263	67.74
181.502	75.93
181.74	10.4
181.979	57.5
182.217	49.31
182.456	100.51
182.694	77.98
182.932	45.21
183.17	8.35
183.409	65.69
183.647	20.64
183.885	20.64
184.123	57.5
184.361	57.5
184.6	16.54
184.838	-8.03
185.076	57.5
185.314	100.51
185.552	30.88
185.79	16.54
186.028	-14.18
186.266	8.35
186.503	18.59
186.741	32.93
186.979	10.4
187.217	82.08
187.455	73.88
187.693	82.08
187.93	24.73
188.168	98.46
188.406	108.7
188.643	73.88
188.881	49.31
189.119	37.02
189.356	8.35
189.594	28.83
189.831	59.55
190.069	65.69
190.306	4.25
190.543	73.88
190.781	-36.71
191.018	69.79
191.256	10.4
191.493	34.97
191.73	-24.42
191.967	0.16
192.205	75.93
192.442	61.6
192.679	37.02
192.916	43.16
193.153	-16.23
193.39	22.69
193.628	82.08
193.865	106.65
194.102	84.12
194.339	59.55
194.576	84.12
194.813	86.17
195.049	129.18
195.286	14.49
195.523	73.88
195.76	65.69
195.997	110.75
196.234	20.64
196.47	24.73
196.707	65.69
196.944	41.12
197.18	45.21
197.417	-32.61
197.654	116.89
197.89	65.69
198.127	45.21
198.363	77.98
198.6	73.88
198.836	53.4
199.073	86.17
199.309	82.08
199.546	-3.94
199.782	92.32
200.018	49.31
200.255	114.84
200.491	57.5
200.727	20.64
200.963	32.93
201.199	-3.94
201.436	41.12
201.672	53.4
201.908	51.36
202.144	-3.94
202.38	82.08
202.616	41.12
202.852	57.5
203.088	24.73
203.324	51.36
203.56	-40.8
203.796	100.51
204.032	16.54
204.268	86.17
204.503	57.5
204.739	65.69
204.975	12.45
205.211	32.93
205.446	28.83
205.682	57.5
205.918	73.88
206.153	32.93
206.389	69.79
206.625	34.97
206.86	-3.94
207.096	49.31
207.331	20.64
207.567	-5.99
207.802	59.55
208.037	67.74
208.273	92.32
208.508	24.73
208.744	90.27
208.979	8.35
209.214	-48.99
209.449	98.46
209.685	0.16
209.92	100.51
210.155	80.03
210.39	24.73
210.625	73.88
210.86	8.35
211.095	61.6
211.33	-5.99
211.565	51.36
211.8	-8.03
212.035	98.46
212.27	51.36
212.505	-8.03
212.74	57.5
212.975	-16.23
213.21	84.12
213.444	-3.94
213.679	63.64
213.914	24.73
214.149	20.64
214.383	108.7
214.618	67.74
214.853	84.12
215.087	94.36
215.322	28.83
215.556	45.21
215.791	24.73
216.025	37.02
216.26	-1.89
216.494	53.4
216.729	28.83
216.963	24.73
217.197	32.93
217.432	59.55
217.666	16.54
217.9	41.12
218.135	82.08
218.369	53.4
218.603	8.35
218.837	75.93
219.071	-8.03
219.306	51.36
219.54	24.73
219.774	49.31
220.008	-20.32
220.242	10.4
220.476	41.12
220.71	32.93
220.944	-20.32
221.178	8.35
221.411	65.69
221.645	49.31
221.879	57.5
222.113	30.88
222.347	-73.57
222.58	4.25
222.814	18.59
223.048	82.08
223.281	75.93
223.515	67.74
223.749	4.25
223.982	49.31
224.216	75.93
224.449	43.16
224.683	49.31
224.916	71.84
225.15	94.36
225.383	24.73
225.617	65.69
225.85	37.02
226.083	49.31
226.317	22.69
226.55	57.5
226.783	43.16
227.016	-1.89
227.25	47.26
227.483	39.07
227.716	100.51
227.949	82.08
228.182	32.93
228.415	98.46
228.648	14.49
228.881	120.99
229.114	30.88
229.347	57.5
229.58	30.88
229.813	-8.03
230.046	16.54
230.279	16.54
230.512	-22.37
230.745	102.56
230.977	57.5
231.21	32.93
231.443	77.98
231.675	24.73
231.908	10.4
232.141	61.6
232.373	32.93
232.606	32.93
232.839	57.5
233.071	28.83
233.304	34.97
233.536	41.12
233.769	73.88
234.001	-16.23
234.233	49.31
234.466	-3.94
234.698	51.36
234.93	20.64
235.163	51.36
235.395	69.79
235.627	-8.03
235.86	41.12
236.092	98.46
236.324	24.73
236.556	82.08
236.788	65.69
237.02	69.79
237.252	57.5
237.484	71.84
237.716	-12.13
237.948	51.36
238.18	37.02
238.412	98.46
238.644	16.54
238.876	69.79
239.108	-57.19
239.34	32.93
239.571	-8.03
239.803	-22.37
240.035	28.83
240.267	133.28
240.498	18.59
240.73	14.49
240.962	-16.23
241.193	34.97
241.425	24.73
241.656	65.69
241.888	57.5
242.119	139.42
242.351	26.78
242.582	59.55
242.814	90.27
243.045	32.93
243.277	57.5
243.508	-8.03
243.739	61.6
243.971	53.4
244.202	118.94
244.433	53.4
244.664	0.16
244.896	24.73
245.127	90.27
245.358	84.12
245.589	24.73
245.82	28.83
246.051	77.98
246.282	10.4
246.513	41.12
246.744	51.36
246.975	10.4
247.206	41.12
247.437	57.5
247.668	43.16
247.899	-12.13
248.129	73.88
248.36	106.65
248.591	73.88
248.822	24.73
249.052	41.12
249.283	100.51
249.514	98.46
249.744	65.69
249.975	57.5
250.206	65.69
250.436	24.73
250.667	18.59
250.897	18.59
251.128	131.23
251.358	118.94
251.589	98.46
251.819	61.6
252.049	88.22
252.28	8.35
252.51	51.36
252.74	106.65
252.971	51.36
253.201	20.64
253.431	20.64
253.661	8.35
253.891	55.45
254.121	69.79
254.352	98.46
254.582	24.73
254.812	18.59
255.042	8.35
255.272	65.69
255.502	45.21
255.732	18.59
255.962	39.07
256.192	0.16
256.421	6.3
256.651	90.27
256.881	82.08
257.111	22.69
257.341	75.93
257.57	28.83
257.8	-32.61
258.03	69.79
258.259	41.12
258.489	57.5
258.719	67.74
258.948	4.25
259.178	77.98
259.407	57.5
259.637	114.84
259.866	59.55
260.096	92.32
260.325	88.22
260.555	-14.18
260.784	77.98
261.013	12.45
261.243	37.02
261.472	75.93
261.701	77.98
261.931	49.31
262.16	32.93
262.389	110.75
262.618	8.35
262.847	65.69
263.076	49.31
263.305	106.65
263.535	-5.99
263.764	18.59
263.993	-20.32
264.222	12.45
264.451	-8.03
264.679	67.74
264.908	67.74
265.137	34.97
265.366	49.31
265.595	73.88
265.824	82.08
266.053	24.73
266.281	24.73
266.51	45.21
266.739	69.79
266.967	53.4
267.196	26.78
267.425	73.88
267.653	24.73
267.882	24.73
268.11	49.31
268.339	20.64
268.567	-22.37
268.796	-20.32
269.024	112.8
269.253	28.83
269.481	37.02
269.709	20.64
269.938	100.51
270.166	2.21
270.394	26.78
270.623	77.98
270.851	32.93
271.079	37.02
271.307	94.36
271.535	-8.03
271.764	26.78
271.992	69.79
272.22	84.12
272.448	86.17
272.676	24.73
272.904	41.12
273.132	61.6
273.36	71.84
273.588	75.93
273.816	75.93
274.043	45.21
274.271	57.5
274.499	73.88
274.727	32.93
274.955	98.46
275.182	51.36
275.41	45.21
275.638	10.4
275.866	77.98
276.093	32.93
276.321	-30.56
276.548	82.08
276.776	20.64
277.003	127.13
277.231	53.4
277.458	49.31
277.686	8.35
277.913	96.41
278.141	28.83
278.368	10.4
278.595	16.54
278.823	24.73
279.05	131.23
279.277	45.21
279.505	-8.03
279.732	61.6
279.959	-16.23
280.186	49.31
280.413	0.16
280.641	43.16
280.868	108.7
281.095	12.45
281.322	67.74
281.549	10.4
281.776	26.78
282.003	-24.42
282.23	82.08
282.457	34.97
282.683	69.79
282.91	57.5
283.137	-34.66
283.364	49.31
283.591	41.12
283.818	20.64
284.044	49.31
284.271	-3.94
284.498	2.21
284.724	59.55
284.951	73.88
285.178	59.55
285.404	43.16
285.631	43.16
285.857	32.93
286.084	80.03
286.31	61.6
286.537	-14.18
286.763	4.25
286.99	16.54
287.216	16.54
287.442	-20.32
287.669	26.78
287.895	108.7
288.121	53.4
288.347	12.45
288.574	65.69
288.8	90.27
289.026	98.46
289.252	65.69
289.478	26.78
289.704	92.32
289.931	45.21
290.157	16.54
290.383	12.45
290.609	32.93
290.835	77.98
291.06	69.79
291.286	90.27
291.512	139.42
291.738	6.3
291.964	43.16
292.19	-26.47
292.416	45.21
292.641	0.16
292.867	-3.94
293.093	65.69
293.319	28.83
293.544	-79.71
293.77	16.54
293.995	41.12
294.221	37.02
294.447	41.12
294.672	57.5
294.898	18.59
295.123	-32.61
295.349	22.69
295.574	49.31
295.799	49.31
296.025	49.31
296.25	77.98
296.476	26.78
296.701	41.12
296.926	37.02
297.151	41.12
297.377	69.79
297.602	-14.18
297.827	41.12
298.052	67.74
298.277	8.35
298.502	18.59
298.727	30.88
298.953	8.35
299.178	41.12
299.403	53.4
299.628	57.5
299.852	69.79
300.077	8.35
300.302	65.69
300.527	49.31
300.752	67.74
300.977	59.55
301.202	-3.94
301.426	59.55
301.651	32.93
301.876	43.16
302.101	22.69
302.325	86.17
302.55	41.12
302.775	26.78
302.999	0.16
303.224	26.78
303.448	39.07
303.673	37.02
303.897	26.78
304.122	77.98
304.346	24.73
304.571	22.69
304.795	59.55
305.019	67.74
305.244	2.21
305.468	49.31
305.692	49.31
305.917	96.41
306.141	-22.37
306.365	67.74
306.589	24.73
306.813	0.16
307.038	51.36
307.262	16.54
307.486	108.7
307.71	28.83
307.934	71.84
308.158	65.69
308.382	-12.13
308.606	41.12
308.83	-24.42
309.054	49.31
309.278	-14.18
309.502	51.36
309.725	37.02
309.949	86.17
310.173	45.21
310.397	-10.08
310.62	10.4
310.844	8.35
311.068	37.02
311.292	32.93
311.515	2.21
311.739	98.46
311.962	26.78
312.186	-8.03
312.41	43.16
312.633	57.5
312.857	34.97
313.08	77.98
313.303	45.21
313.527	8.35
313.75	24.73
313.974	8.35
314.197	32.93
314.42	14.49
314.644	-24.42
314.867	65.69
315.09	-16.23
315.313	59.55
315.536	-24.42
315.76	26.78
315.983	-10.08
316.206	20.64
316.429	75.93
316.652	6.3
316.875	61.6
317.098	57.5
317.321	10.4
317.544	-16.23
317.767	84.12
317.99	0.16
318.213	104.6
318.436	77.98
318.658	16.54
318.881	-32.61
319.104	28.83
319.327	47.26
319.55	82.08
319.772	65.69
319.995	98.46
320.218	49.31
320.44	49.31
320.663	59.55
320.885	8.35
321.108	73.88
321.331	77.98
321.553	110.75
321.776	-14.18
321.998	53.4
322.22	18.59
322.443	77.98
322.665	65.69
322.888	0.16
323.11	45.21
323.332	16.54
323.555	0.16
323.777	86.17
323.999	8.35
324.221	-5.99
324.443	71.84
324.666	80.03
324.888	149.66
325.11	57.5
325.332	75.93
325.554	63.64
325.776	41.12
325.998	65.69
326.22	-24.42
326.442	16.54
326.664	43.16
326.886	32.93
327.108	16.54
327.33	49.31
327.551	16.54
327.773	20.64
327.995	41.12
328.217	51.36
328.439	73.88
328.66	65.69
328.882	37.02
329.104	94.36
329.325	18.59
329.547	34.97
329.769	-44.9
329.99	82.08
330.212	37.02
330.433	24.73
330.655	88.22
330.876	24.73
331.098	84.12
331.319	41.12
331.54	8.35
331.762	86.17
331.983	4.25
332.204	45.21
332.426	12.45
332.647	125.08
332.868	24.73
333.089	41.12
333.311	10.4
333.532	57.5
333.753	-14.18
333.974	106.65
334.195	32.93
334.416	82.08
334.637	32.93
334.858	51.36
335.079	-12.13
335.3	14.49
335.521	82.08
335.742	77.98
335.963	59.55
336.184	57.5
336.405	12.45
336.626	-3.94
336.846	16.54
337.067	24.73
337.288	28.83
337.509	8.35
337.729	22.69
337.95	41.12
338.171	41.12
338.391	82.08
338.612	80.03
338.833	32.93
339.053	49.31
339.274	61.6
339.494	59.55
339.715	47.26
339.935	75.93
340.156	4.25
340.376	98.46
340.596	41.12
340.817	69.79
341.037	129.18
341.257	69.79
341.478	34.97
341.698	-38.75
341.918	-10.08
342.138	4.25
342.359	18.59
342.579	16.54
342.799	45.21
343.019	45.21
343.239	53.4
343.459	65.69
343.679	59.55
343.899	98.46
344.119	59.55
344.339	20.64
344.559	57.5
344.779	-32.61
344.999	8.35
345.219	24.73
345.439	6.3
345.658	49.31
345.878	8.35
346.098	59.55
346.318	118.94
346.537	49.31
346.757	131.23
346.977	-22.37
347.196	86.17
347.416	24.73
347.636	67.74
347.855	61.6
348.075	86.17
348.294	73.88
348.514	69.79
348.733	-3.94
348.953	8.35
349.172	-20.32
349.392	71.84
349.611	4.25
349.83	26.78
350.05	24.73
350.269	98.46
350.488	53.4
350.707	123.04
350.927	14.49
351.146	57.5
351.365	84.12
351.584	34.97
351.803	32.93
352.023	65.69
352.242	57.5
352.461	90.27
352.68	-30.56
352.899	102.56
353.118	67.74
353.337	94.36
353.556	-16.23
353.775	100.51
353.993	41.12
354.212	32.93
354.431	32.93
354.65	123.04
354.869	16.54
355.088	80.03
355.306	32.93
355.525	55.45
355.744	-34.66
355.962	41.12
356.181	61.6
356.4	98.46
356.618	57.5
356.837	37.02
357.055	43.16
357.274	24.73
357.492	26.78
357.711	14.49
357.929	2.21
358.148	77.98
358.366	49.31
358.585	61.6
358.803	14.49
359.021	69.79
359.24	57.5
359.458	47.26
359.676	18.59
359.894	82.08
360.113	43.16
360.331	16.54
360.549	51.36
360.767	18.59
360.985	16.54
361.203	37.02
361.421	37.02
361.639	41.12
361.857	-57.19
362.075	49.31
362.293	86.17
362.511	32.93
362.729	28.83
362.947	65.69
363.165	41.12
363.383	12.45
363.601	49.31
363.819	41.12
364.036	16.54
364.254	-71.52
364.472	-16.23
364.689	8.35
364.907	43.16
365.125	28.83
365.342	45.21
365.56	82.08
365.778	96.41
365.995	8.35
366.213	30.88
366.43	57.5
366.648	-8.03
366.865	32.93
367.083	-42.85
367.3	102.56
367.517	43.16
367.735	28.83
367.952	53.4
368.17	153.76
368.387	92.32
368.604	53.4
368.821	41.12
369.039	2.21
369.256	30.88
369.473	94.36
369.69	53.4
369.907	-28.51
370.124	28.83
370.341	94.36
370.558	-8.03
370.776	73.88
370.993	37.02
371.21	49.31
371.426	55.45
371.643	47.26
371.86	65.69
372.077	73.88
372.294	-14.18
372.511	69.79
372.728	-38.75
372.945	63.64
373.161	41.12
373.378	43.16
373.595	8.35
373.811	69.79
374.028	67.74
374.245	24.73
374.461	0.16
374.678	69.79
374.895	61.6
375.111	4.25
375.328	47.26
375.544	12.45
375.761	-12.13
375.977	57.5
376.194	28.83
376.41	37.02
376.626	73.88
376.843	53.4
377.059	24.73
377.275	-1.89
377.492	32.93
377.708	34.97
377.924	65.69
378.14	80.03
378.357	53.4
378.573	-40.8
378.789	-16.23
379.005	131.23
379.221	24.73
379.437	49.31
379.653	10.4
379.869	30.88
380.085	4.25
380.301	24.73
380.517	26.78
380.733	65.69
380.949	75.93
381.165	34.97
381.381	32.93
381.597	24.73
381.813	37.02
382.028	32.93
382.244	53.4
382.46	65.69
382.676	88.22
382.891	63.64
383.107	16.54
383.323	73.88
383.538	77.98
383.754	92.32
383.969	69.79
384.185	2.21
384.4	90.27
384.616	37.02
384.831	-3.94
385.047	90.27
385.262	32.93
385.478	-3.94
385.693	-12.13
385.909	-28.51
386.124	61.6
386.339	-46.95
386.554	73.88
386.77	106.65
386.985	49.31
387.2	32.93
387.415	24.73
387.631	24.73
387.846	59.55
388.061	73.88
388.276	65.69
388.491	-24.42
388.706	98.46
388.921	0.16
389.136	63.64
389.351	-77.67
389.566	51.36
389.781	65.69
389.996	4.25
390.211	-14.18
390.426	-10.08
390.641	49.31
390.855	80.03
391.07	73.88
391.285	106.65
391.5	30.88
391.714	16.54
391.929	-8.03
392.144	34.97
392.358	6.3
392.573	28.83
392.788	86.17
393.002	16.54
393.217	92.32
393.431	49.31
393.646	-8.03
393.86	65.69
394.075	10.4
394.289	8.35
394.504	-8.03
394.718	-1.89
394.933	88.22
395.147	90.27
395.361	65.69
395.576	37.02
395.79	57.5
396.004	-3.94
396.218	63.64
396.432	-106.34
396.647	73.88
396.861	59.55
397.075	37.02
397.289	37.02
397.503	32.93
397.717	24.73
397.931	73.88
398.145	-40.8
398.359	18.59
398.573	14.49
398.787	75.93
399.001	65.69
399.215	24.73
399.429	-10.08
399.643	51.36
399.857	20.64
400.07	98.46
400.284	43.16
400.498	34.97
400.712	20.64
400.925	75.93
401.139	61.6
401.353	12.45
401.566	86.17
401.78	98.46
401.994	30.88
402.207	67.74
402.421	43.16
402.634	137.37
402.848	77.98
403.061	77.98
403.275	24.73
403.488	73.88
403.702	90.27
403.915	73.88
404.128	2.21
404.342	26.78
404.555	49.31
404.768	-3.94
404.982	43.16
405.195	24.73
405.408	2.21
405.621	73.88
405.835	98.46
406.048	53.4
406.261	34.97
406.474	10.4
406.687	4.25
406.9	28.83
407.113	4.25
407.326	20.64
407.539	-38.75
407.752	51.36
407.965	10.4
408.178	73.88
408.391	73.88
408.604	57.5
408.817	6.3
409.029	16.54
409.242	57.5
409.455	98.46
409.668	-14.18
409.881	-30.56
410.093	12.45
410.306	26.78
410.519	94.36
410.731	73.88
410.944	86.17
411.157	0.16
411.369	0.16
411.582	71.84
411.794	73.88
412.007	63.64
412.219	57.5
412.432	49.31
412.644	43.16
412.857	-16.23
413.069	71.84
413.281	28.83
413.494	24.73
413.706	88.22
413.918	53.4
414.131	28.83
414.343	112.8
414.555	65.69
414.767	-8.03
414.979	12.45
415.192	-32.61
415.404	16.54
415.616	-40.8
415.828	37.02
416.04	73.88
416.252	41.12
416.464	45.21
416.676	-14.18
416.888	-3.94
417.1	34.97
417.312	-12.13
417.524	90.27
417.736	6.3
417.948	65.69
418.159	45.21
418.371	26.78
418.583	-24.42
418.795	-14.18
419.007	57.5
419.218	45.21
419.43	22.69
419.642	92.32
419.853	24.73
420.065	51.36
420.276	4.25
420.488	75.93
420.7	16.54
420.911	12.45
421.123	26.78
421.334	8.35
421.546	-40.8
421.757	57.5
421.969	16.54
422.18	18.59
422.391	-22.37
422.603	94.36
422.814	0.16
423.025	77.98
423.237	24.73
423.448	75.93
423.659	12.45
423.87	26.78
424.082	108.7
424.293	69.79
424.504	49.31
424.715	63.64
424.926	32.93
425.137	90.27
425.348	75.93
425.559	32.93
425.77	41.12
425.981	22.69
426.192	-24.42
426.403	77.98
426.614	63.64
426.825	24.73
427.036	67.74
427.247	77.98
427.458	32.93
427.668	59.55
427.879	16.54
428.09	86.17
428.301	94.36
428.511	24.73
428.722	43.16
428.933	67.74
429.143	18.59
429.354	34.97
429.565	125.08
429.775	92.32
429.986	22.69
430.196	53.4
430.407	59.55
430.617	57.5
430.828	37.02
431.038	32.93
431.249	32.93
431.459	8.35
431.669	53.4
431.88	69.79
432.09	47.26
432.3	26.78
432.511	45.21
432.721	67.74
432.931	28.83
433.141	59.55
433.351	47.26
433.562	110.75
433.772	2.21
433.982	18.59
434.192	4.25
434.402	100.51
434.612	20.64
434.822	18.59
435.032	32.93
435.242	26.78
435.452	32.93
435.662	51.36
435.872	67.74
436.082	2.21
436.292	41.12
436.502	49.31
436.711	75.93
436.921	8.35
437.131	28.83
437.341	4.25
437.551	49.31
437.76	131.23
437.97	-22.37
438.18	0.16
438.389	84.12
438.599	123.04
438.808	41.12
439.018	53.4
439.228	100.51
439.437	51.36
439.647	57.5
439.856	73.88
440.066	82.08
440.275	14.49
440.484	65.69
440.694	10.4
440.903	12.45
441.113	-16.23
441.322	-20.32
441.531	49.31
441.741	57.5
441.95	24.73
442.159	12.45
442.368	63.64
442.577	141.47
442.787	32.93
442.996	59.55
443.205	77.98
443.414	16.54
443.623	55.45
443.832	4.25
444.041	12.45
444.25	51.36
444.459	-16.23
444.668	34.97
444.877	73.88
445.086	4.25
445.295	28.83
445.504	24.73
445.713	-48.99
445.922	45.21
446.13	57.5
446.339	37.02
446.548	51.36
446.757	16.54
446.965	43.16
447.174	10.4
447.383	32.93
447.591	8.35
447.8	-1.89
448.009	65.69
448.217	114.84
448.426	0.16
448.634	0.16
448.843	24.73
449.051	57.5
449.26	-16.23
449.468	-3.94
449.677	10.4
449.885	34.97
450.093	30.88
450.302	41.12
450.51	98.46
450.719	-32.61
450.927	6.3
451.135	75.93
451.343	20.64
451.552	75.93
451.76	51.36
451.968	8.35
452.176	-5.99
452.384	82.08
452.592	24.73
452.8	104.6
453.009	16.54
453.217	8.35
453.425	51.36
453.633	57.5
453.841	90.27
454.049	61.6
454.257	90.27
454.464	-16.23
454.672	32.93
454.88	51.36
455.088	8.35
455.296	69.79
455.504	51.36
455.711	8.35
455.919	-3.94
456.127	75.93
456.335	8.35
456.542	65.69
456.75	90.27
456.958	98.46
457.165	14.49
457.373	18.59
457.581	32.93
457.788	34.97
457.996	20.64
458.203	-10.08
458.411	53.4
458.618	82.08
458.826	8.35
459.033	49.31
459.24	49.31
459.448	10.4
459.655	43.16
459.863	-8.03
460.07	12.45
460.277	24.73
460.484	57.5
460.692	12.45
460.899	-32.61
461.106	45.21
461.313	32.93
461.52	100.51
461.728	96.41
461.935	65.69
462.142	53.4
462.349	57.5
462.556	-12.13
462.763	41.12
462.97	65.69
463.177	30.88
463.384	57.5
463.591	120.99
463.798	37.02
464.005	26.78
464.212	-36.71
464.418	4.25
464.625	-8.03
464.832	-5.99
465.039	26.78
465.246	86.17
465.452	-8.03
465.659	26.78
465.866	41.12
466.072	16.54
466.279	20.64
466.486	65.69
466.692	30.88
466.899	20.64
467.105	-16.23
467.312	65.69
467.519	65.69
467.725	98.46
467.931	16.54
468.138	18.59
468.344	67.74
468.551	24.73
468.757	49.31
468.964	16.54
469.17	-28.51
469.376	75.93
469.583	77.98
469.789	55.45
469.995	41.12
470.201	28.83
470.408	80.03
470.614	-20.32
470.82	65.69
471.026	43.16
471.232	49.31
471.438	84.12
471.644	69.79
471.85	94.36
472.056	18.59
472.262	34.97
472.468	24.73
472.674	41.12
472.88	16.54
473.086	53.4
473.292	90.27
473.498	114.84
473.704	43.16
473.91	61.6
474.116	69.79
474.321	53.4
474.527	-8.03
474.733	82.08
474.939	37.02
475.144	86.17
475.35	8.35
475.556	82.08
475.761	37.02
475.967	59.55
476.173	61.6
476.378	77.98
476.584	51.36
476.789	73.88
476.995	37.02
477.2	55.45
477.406	59.55
477.611	28.83
477.817	57.5
478.022	16.54
478.227	10.4
478.433	90.27
478.638	-40.8
478.843	45.21
479.049	73.88
479.254	77.98
479.459	-3.94
479.664	26.78
479.87	34.97
480.075	45.21
480.28	45.21
480.485	43.16
480.69	-8.03
480.895	61.6
481.1	2.21
481.306	0.16
481.511	57.5
481.716	24.73
481.921	-12.13
482.126	82.08
482.33	47.26
482.535	57.5
482.74	-5.99
482.945	73.88
483.15	-40.8
483.355	-36.71
483.56	37.02
483.765	135.32
483.969	24.73
484.174	57.5
484.379	-32.61
484.583	16.54
484.788	55.45
484.993	18.59
485.197	118.94
485.402	71.84
485.607	-16.23
485.811	-5.99
486.016	75.93
486.22	2.21
486.425	6.3
486.629	84.12
486.834	53.4
487.038	0.16
487.243	4.25
487.447	59.55
487.652	69.79
487.856	71.84
488.06	-40.8
488.265	18.59
488.469	102.56
488.673	114.84
488.877	61.6
489.082	49.31
489.286	118.94
489.49	20.64
489.694	67.74
489.898	32.93
490.102	53.4
490.307	104.6
490.511	0.16
490.715	26.78
490.919	49.31
491.123	14.49
491.327	34.97
491.531	90.27
491.735	104.6
491.939	-5.99
492.143	100.51
492.346	43.16
492.55	10.4
492.754	12.45
492.958	24.73
493.162	34.97
493.366	34.97
493.569	32.93
493.773	34.97
493.977	73.88
494.18	45.21
494.384	53.4
494.588	116.89
494.791	41.12
494.995	41.12
495.199	-3.94
495.402	20.64
495.606	45.21
495.809	80.03
496.013	69.79
496.216	0.16
496.42	30.88
496.623	71.84
496.827	4.25
497.03	51.36
497.233	8.35
497.437	12.45
497.64	75.93
497.843	45.21
498.047	0.16
498.25	32.93
498.453	75.93
498.656	37.02
498.86	57.5
499.063	4.25
499.266	37.02
499.469	82.08
499.672	45.21
499.875	45.21
500.078	-5.99
500.281	86.17
500.484	61.6
500.687	86.17
500.89	16.54
501.093	6.3
501.296	49.31
501.499	12.45
501.702	16.54
501.905	61.6
502.108	51.36
502.311	100.51
502.514	-14.18
502.716	102.56
502.919	18.59
503.122	8.35
503.325	73.88
503.527	145.56
503.73	34.97
503.933	34.97
504.135	45.21
504.338	102.56
504.541	-30.56
504.743	45.21
504.946	-22.37
505.148	12.45
505.351	65.69
505.553	26.78
505.756	28.83
505.958	75.93
506.161	28.83
506.363	-12.13
506.565	16.54
506.768	-28.51
506.97	12.45
507.172	63.64
507.375	100.51
507.577	73.88
507.779	51.36
507.982	20.64
508.184	6.3
508.386	0.16
508.588	39.07
508.79	94.36
508.993	8.35
509.195	82.08
509.397	61.6
509.599	24.73
509.801	65.69
510.003	20.64
510.205	-26.47
510.407	67.74
510.609	65.69
510.811	22.69
511.013	8.35
511.215	65.69
511.417	86.17
511.618	86.17
511.82	12.45
512.022	10.4
512.224	65.69
512.426	55.45
512.627	49.31
512.829	57.5
513.031	43.16
513.233	24.73
513.434	37.02
513.636	4.25
513.838	82.08
514.039	63.64
514.241	24.73
514.442	88.22
514.644	127.13
514.845	43.16
515.047	69.79
515.248	86.17
515.45	90.27
515.651	10.4
515.853	63.64
516.054	32.93
516.256	-3.94
516.457	37.02
516.658	61.6
516.86	77.98
517.061	73.88
517.262	16.54
517.463	12.45
517.665	65.69
517.866	49.31
518.067	32.93
518.268	-16.23
518.469	75.93
518.67	-8.03
518.872	-20.32
519.073	112.8
519.274	57.5
519.475	94.36
519.676	41.12
519.877	45.21
520.078	-16.23
520.279	2.21
520.48	-5.99
520.681	49.31
520.881	43.16
521.082	20.64
521.283	2.21
521.484	16.54
521.685	61.6
521.886	57.5
522.086	4.25
522.287	-46.95
522.488	-20.32
522.689	37.02
522.889	26.78
523.09	80.03
523.291	32.93
523.491	-40.8
523.692	45.21
523.892	32.93
524.093	10.4
524.294	61.6
524.494	-3.94
524.695	26.78
524.895	41.12
525.096	100.51
525.296	20.64
525.496	45.21
525.697	-3.94
525.897	24.73
526.098	47.26
526.298	57.5
526.498	24.73
526.699	73.88
526.899	32.93
527.099	57.5
527.299	-22.37
527.499	43.16
527.7	41.12
527.9	24.73
528.1	4.25
528.3	82.08
528.5	10.4
528.7	51.36
528.9	-3.94
529.1	82.08
529.3	8.35
529.5	20.64
529.7	94.36
529.9	2.21
530.1	57.5
530.3	24.73
530.5	32.93
530.7	41.12
530.9	49.31
531.1	65.69
531.3	41.12
531.499	34.97
531.699	49.31
531.899	43.16
532.099	37.02
532.298	24.73
532.498	69.79
532.698	49.31
532.897	80.03
533.097	-32.61
533.297	22.69
533.496	34.97
533.696	34.97
533.895	159.9
534.095	51.36
534.294	43.16
534.494	26.78
534.693	-40.8
534.893	-8.03
535.092	41.12
535.292	-30.56
535.491	28.83
535.69	-46.95
535.89	-53.09
536.089	63.64
536.288	24.73
536.488	24.73
536.687	57.5
536.886	51.36
537.085	0.16
537.285	-16.23
537.484	34.97
537.683	86.17
537.882	49.31
538.081	61.6
538.28	45.21
538.479	86.17
538.678	4.25
538.877	-24.42
539.076	84.12
539.275	-26.47
539.474	73.88
539.673	32.93
539.872	51.36
540.071	43.16
540.27	24.73
540.469	0.16
540.668	67.74
540.867	53.4
541.065	82.08
541.264	96.41
541.463	55.45
541.662	32.93
541.861	16.54
542.059	45.21
542.258	61.6
542.457	-14.18
542.655	80.03
542.854	49.31
543.052	8.35
543.251	32.93
543.45	57.5
543.648	24.73
543.847	16.54
544.045	24.73
544.244	-22.37
544.442	28.83
544.641	4.25
544.839	26.78
545.037	65.69
545.236	71.84
545.434	14.49
545.632	63.64
545.831	80.03
546.029	59.55
546.227	55.45
546.426	-38.75
546.624	92.32
546.822	41.12
547.02	106.65
547.218	-20.32
547.417	-48.99
547.615	26.78
547.813	47.26
548.011	65.69
548.209	69.79
548.407	43.16
548.605	34.97
548.803	-1.89
549.001	67.74
549.199	18.59
549.397	32.93
549.595	51.36
549.793	26.78
549.991	43.16
550.189	57.5
550.387	57.5
550.584	73.88
550.782	10.4
550.98	84.12
551.178	39.07
551.376	106.65
551.573	18.59
551.771	32.93
551.969	32.93
552.166	104.6
552.364	16.54
552.562	12.45
552.759	24.73
552.957	32.93
553.154	49.31
553.352	41.12
553.55	8.35
553.747	82.08
553.945	43.16
554.142	-59.23
554.339	94.36
554.537	53.4
554.734	28.83
554.932	24.73
555.129	39.07
555.326	34.97
555.524	73.88
555.721	26.78
555.918	37.02
556.116	51.36
556.313	65.69
556.51	12.45
556.707	18.59
556.904	49.31
557.102	-16.23
557.299	32.93
557.496	86.17
557.693	12.45
557.89	8.35
558.087	102.56
558.284	75.93
558.481	51.36
558.678	59.55
558.875	-14.18
559.072	57.5
559.269	75.93
559.466	86.17
559.663	34.97
559.86	77.98
560.057	8.35
560.254	57.5
560.45	73.88
560.647	-32.61
560.844	96.41
561.041	57.5
561.237	71.84
561.434	149.66
561.631	63.64
561.828	8.35
562.024	-38.75
562.221	51.36
562.418	34.97
562.614	65.69
562.811	90.27
563.007	110.75
563.204	57.5
563.4	12.45
563.597	8.35
563.793	57.5
563.99	-14.18
564.186	96.41
564.383	24.73
564.579	-14.18
564.775	51.36
564.972	-5.99
565.168	-20.32
565.365	49.31
565.561	20.64
565.757	110.75
565.953	106.65
566.15	65.69
566.346	12.45
566.542	110.75
566.738	24.73
566.934	14.49
567.131	10.4
567.327	18.59
567.523	-20.32
567.719	2.21
567.915	-3.94
568.111	49.31
568.307	24.73
568.503	18.59
568.699	45.21
568.895	90.27
569.091	98.46
569.287	69.79
569.483	26.78
569.679	20.64
569.875	61.6
570.07	-32.61
570.266	-5.99
570.462	30.88
570.658	53.4
570.854	73.88
571.049	65.69
571.245	71.84
571.441	32.93
571.636	57.5
571.832	73.88
572.028	14.49
572.223	49.31
572.419	100.51
572.615	84.12
572.81	14.49
573.006	6.3
573.201	47.26
573.397	20.64
573.592	65.69
573.788	45.21
573.983	30.88
574.179	77.98
574.374	-16.23
574.569	8.35
574.765	0.16
574.96	92.32
575.156	61.6
575.351	69.79
575.546	43.16
575.741	32.93
575.937	53.4
576.132	80.03
576.327	41.12
576.522	20.64
576.718	39.07
576.913	41.12
577.108	71.84
577.303	4.25
577.498	-28.51
577.693	-18.27
577.888	51.36
578.083	106.65
578.278	0.16
578.473	-12.13
578.668	75.93
578.863	45.21
579.058	32.93
579.253	90.27
579.448	59.55
579.643	45.21
579.838	61.6
580.033	69.79
580.227	102.56
580.422	49.31
580.617	53.4
580.812	82.08
581.006	96.41
581.201	32.93
581.396	43.16
581.591	69.79
581.785	94.36
581.98	-8.03
582.175	-20.32
582.369	16.54
582.564	-24.42
582.758	57.5
582.953	110.75
583.147	24.73
583.342	8.35
583.536	45.21
583.731	57.5
583.925	82.08
584.12	59.55
584.314	4.25
584.509	-8.03
584.703	45.21
584.897	59.55
585.092	34.97
585.286	82.08
585.48	102.56
585.674	65.69
585.869	0.16
586.063	4.25
586.257	53.4
586.451	32.93
586.646	-51.04
586.84	49.31
587.034	59.55
587.228	55.45
587.422	59.55
587.616	37.02
587.81	-8.03
588.004	86.17
588.198	37.02
588.392	41.12
588.586	43.16
588.78	24.73
588.974	-75.62
589.168	41.12
589.362	39.07
589.556	26.78
589.75	34.97
589.944	-22.37
590.137	4.25
590.331	28.83
590.525	65.69
590.719	49.31
590.913	49.31
591.106	8.35
591.3	57.5
591.494	16.54
591.687	59.55
591.881	73.88
592.075	2.21
592.268	53.4
592.462	90.27
592.655	69.79
592.849	24.73
593.043	6.3
593.236	-3.94
593.43	82.08
593.623	16.54
593.817	84.12
594.01	41.12
594.203	16.54
594.397	59.55
594.59	100.51
594.784	41.12
594.977	41.12
595.17	-16.23
595.364	57.5
595.557	34.97
595.75	10.4
595.943	94.36
596.137	34.97
596.33	67.74
596.523	65.69
596.716	-3.94
596.909	67.74
597.102	49.31
597.296	20.64
597.489	49.31
597.682	37.02
597.875	57.5
598.068	77.98
598.261	73.88
598.454	65.69
598.647	45.21
598.84	73.88
599.033	94.36
599.226	90.27
599.419	-63.33
599.611	12.45
599.804	90.27
599.997	-32.61
600.19	-16.23
600.383	-16.23
600.576	10.4
600.768	0.16
600.961	73.88
601.154	32.93
601.347	24.73
601.539	32.93
601.732	30.88
601.925	0.16
602.117	84.12
602.31	-14.18
602.502	49.31
602.695	0.16
602.888	57.5
603.08	53.4
603.273	41.12
603.465	-3.94
603.658	12.45
603.85	6.3
604.043	0.16
604.235	73.88
604.427	53.4
604.62	51.36
604.812	22.69
605.004	82.08
605.197	77.98
605.389	92.32
605.581	-5.99
605.774	84.12
605.966	47.26
606.158	-24.42
606.35	108.7
606.543	90.27
606.735	61.6
606.927	73.88
607.119	118.94
607.311	-30.56
607.503	82.08
607.695	43.16
607.887	20.64
608.079	32.93
608.271	-3.94
608.463	18.59
608.655	37.02
608.847	41.12
609.039	0.16
609.231	43.16
609.423	0.16
609.615	-16.23
609.807	73.88
609.999	108.7
610.191	24.73
610.382	49.31
610.574	53.4
610.766	28.83
610.958	34.97
611.15	84.12
611.341	49.31
611.533	32.93
611.725	49.31
611.916	-1.89
612.108	49.31
612.3	-3.94
612.491	0.16
612.683	57.5
612.874	32.93
613.066	-12.13
613.257	59.55
613.449	143.52
613.64	41.12
613.832	-12.13
614.023	-10.08
614.215	100.51
614.406	43.16
614.598	-16.23
614.789	32.93
614.98	59.55
615.172	57.5
615.363	73.88
615.554	18.59
615.746	51.36
615.937	8.35
616.128	98.46
616.319	65.69
616.511	12.45
616.702	114.84
616.893	24.73
617.084	-36.71
617.275	4.25
617.466	82.08
617.658	0.16
617.849	32.93
618.04	-22.37
618.231	37.02
618.422	82.08
618.613	84.12
618.804	0.16
618.995	106.65
619.186	49.31
619.377	8.35
619.568	10.4
619.758	16.54
619.949	-8.03
620.14	82.08
620.331	51.36
620.522	-24.42
620.713	49.31
620.903	47.26
621.094	16.54
621.285	18.59
621.476	20.64
621.666	61.6
621.857	37.02
622.048	57.5
622.238	-3.94
622.429	84.12
622.62	57.5
622.81	-20.32
623.001	80.03
623.191	12.45
623.382	8.35
623.572	8.35
623.763	45.21
623.953	18.59
624.144	32.93
624.334	65.69
624.525	82.08
624.715	0.16
624.905	8.35
625.096	41.12
625.286	57.5
625.477	6.3
625.667	26.78
625.857	61.6
626.047	20.64
626.238	12.45
626.428	73.88
626.618	12.45
626.808	51.36
626.999	73.88
627.189	41.12
627.379	106.65
627.569	16.54
627.759	-36.71
627.949	32.93
628.139	45.21
628.329	43.16
628.519	28.83
628.709	26.78
628.899	32.93
629.089	45.21
629.279	20.64
629.469	2.21
629.659	45.21
629.849	61.6
630.039	41.12
630.229	14.49
630.419	-14.18
630.609	-36.71
630.798	51.36
630.988	32.93
631.178	0.16
631.368	86.17
631.557	8.35
631.747	16.54
631.937	61.6
632.127	65.69
632.316	47.26
632.506	-5.99
632.696	32.93
632.885	32.93
633.075	24.73
633.264	-34.66
633.454	90.27
633.643	61.6
633.833	26.78
634.022	49.31
634.212	41.12
634.401	2.21
634.591	75.93
634.78	-46.95
634.97	-10.08
635.159	43.16
635.348	65.69
635.538	34.97
635.727	28.83
635.916	45.21
636.106	49.31
636.295	67.74
636.484	82.08
636.674	-28.51
636.863	-24.42
637.052	20.64
637.241	51.36
637.43	49.31
637.619	-5.99
637.809	-42.85
637.998	12.45
638.187	12.45
638.376	-30.56
638.565	12.45
638.754	-34.66
638.943	-22.37
639.132	82.08
639.321	51.36
639.51	32.93
639.699	41.12
639.888	34.97
640.077	73.88
640.266	110.75
640.455	28.83
640.643	84.12
640.832	16.54
641.021	32.93
641.21	37.02
641.399	12.45
641.587	4.25
641.776	26.78
641.965	12.45
642.154	106.65
642.342	16.54
642.531	114.84
642.72	-10.08
642.908	82.08
643.097	69.79
643.286	-3.94
643.474	-14.18
643.663	43.16
643.851	8.35
644.04	37.02
644.228	8.35
644.417	53.4
644.605	39.07
644.794	49.31
644.982	6.3
645.171	24.73
645.359	0.16
645.547	-12.13
645.736	59.55
645.924	45.21
646.112	-3.94
646.301	34.97
646.489	49.31
646.677	51.36
646.866	0.16
647.054	82.08
647.242	24.73
647.43	-51.04
647.618	0.16
647.807	73.88
647.995	10.4
648.183	-14.18
648.371	41.12
648.559	57.5
648.747	84.12
648.935	55.45
649.123	80.03
649.311	2.21
649.499	-1.89
649.687	49.31
649.875	37.02
650.063	114.84
650.251	-30.56
650.439	45.21
650.627	26.78
650.815	32.93
651.003	16.54
651.191	77.98
651.378	57.5
651.566	73.88
651.754	43.16
651.942	39.07
652.13	34.97
652.317	32.93
652.505	98.46
652.693	49.31
652.88	10.4
653.068	28.83
653.256	69.79
653.443	65.69
653.631	-73.57
653.819	0.16
654.006	10.4
654.194	53.4
654.381	4.25
654.569	67.74
654.756	37.02
654.944	16.54
655.131	102.56
655.319	32.93
655.506	16.54
655.693	129.18
655.881	34.97
656.068	77.98
656.256	65.69
656.443	0.16
656.63	51.36
656.818	65.69
657.005	77.98
657.192	125.08
657.379	12.45
657.567	159.9
657.754	0.16
657.941	71.84
658.128	77.98
658.315	45.21
658.502	73.88
658.69	41.12
658.877	14.49
659.064	-5.99
659.251	100.51
659.438	73.88
659.625	53.4
659.812	53.4
659.999	106.65
660.186	57.5
660.373	18.59
660.56	61.6
660.747	-46.95
660.934	51.36
661.121	-8.03
661.308	69.79
661.494	8.35
661.681	131.23
661.868	41.12
662.055	30.88
662.242	-32.61
662.428	28.83
662.615	-48.99
662.802	57.5
662.989	22.69
663.175	45.21
663.362	73.88
663.549	41.12
663.735	37.02
663.922	18.59
664.109	18.59
664.295	18.59
664.482	47.26
664.668	28.83
664.855	-22.37
665.041	57.5
665.228	63.64
665.414	41.12
665.601	120.99
665.787	16.54
665.974	4.25
666.16	190.62
666.347	69.79
666.533	65.69
666.719	30.88
666.906	123.04
667.092	-48.99
667.278	59.55
667.465	-3.94
667.651	49.31
667.837	26.78
668.023	65.69
668.21	-28.51
668.396	32.93
668.582	110.75
668.768	-12.13
668.954	32.93
669.14	49.31
669.327	86.17
669.513	24.73
669.699	65.69
669.885	-1.89
670.071	34.97
670.257	59.55
670.443	20.64
670.629	-24.42
670.815	32.93
671.001	34.97
671.187	133.28
671.373	16.54
671.559	30.88
671.744	73.88
671.93	57.5
672.116	82.08
672.302	18.59
672.488	49.31
672.674	77.98
672.859	24.73
673.045	41.12
673.231	-32.61
673.417	45.21
673.602	37.02
673.788	100.51
673.974	16.54
674.159	98.46
674.345	145.56
674.531	8.35
674.716	32.93
674.902	16.54
675.087	34.97
675.273	59.55
675.459	16.54
675.644	30.88
675.83	61.6
676.015	16.54
676.2	-5.99
676.386	61.6
676.571	32.93
676.757	24.73
676.942	-24.42
677.128	77.98
677.313	43.16
677.498	-5.99
677.684	73.88
677.869	-26.47
678.054	65.69
678.24	32.93
678.425	-14.18
678.61	37.02
678.795	77.98
678.98	75.93
679.166	51.36
679.351	43.16
679.536	16.54
679.721	57.5
679.906	16.54
680.091	53.4
680.276	-8.03
680.461	-3.94
680.647	34.97
680.832	71.84
681.017	12.45
681.202	59.55
681.387	28.83
681.572	82.08
681.756	20.64
681.941	20.64
682.126	92.32
682.311	57.5
682.496	73.88
682.681	65.69
682.866	-3.94
683.051	57.5
683.235	24.73
683.42	65.69
683.605	32.93
683.79	34.97
683.974	32.93
684.159	102.56
684.344	110.75
684.529	67.74
684.713	-22.37
684.898	41.12
685.083	45.21
685.267	73.88
685.452	51.36
685.636	43.16
685.821	104.6
686.005	41.12
686.19	59.55
686.375	22.69
686.559	49.31
686.744	69.79
686.928	32.93
687.112	32.93
687.297	18.59
687.481	-51.04
687.666	18.59
687.85	32.93
688.034	61.6
688.219	57.5
688.403	6.3
688.587	49.31
688.772	8.35
688.956	-16.23
689.14	28.83
689.324	8.35
689.509	16.54
689.693	16.54
689.877	84.12
690.061	82.08
690.245	65.69
690.43	16.54
690.614	65.69
690.798	102.56
690.982	69.79
691.166	-30.56
691.35	18.59
691.534	47.26
691.718	30.88
691.902	2.21
692.086	32.93
692.27	16.54
692.454	73.88
692.638	20.64
692.822	102.56
693.006	-22.37
693.19	4.25
693.373	108.7
693.557	-48.99
693.741	-10.08
693.925	22.69
694.109	53.4
694.293	32.93
694.476	-14.18
694.66	86.17
694.844	84.12
695.027	4.25
695.211	49.31
695.395	28.83
695.578	22.69
695.762	57.5
695.946	2.21
696.129	0.16
696.313	53.4
696.497	-32.61
696.68	82.08
696.864	39.07
697.047	16.54
697.231	39.07
697.414	-14.18
697.598	57.5
697.781	65.69
697.965	73.88
698.148	92.32
698.331	-16.23
698.515	-14.18
698.698	4.25
698.881	-12.13
699.065	69.79
699.248	57.5
699.431	34.97
699.615	-12.13
699.798	61.6
699.981	65.69
700.165	57.5
700.348	65.69
700.531	26.78
700.714	12.45
700.897	49.31
701.08	-14.18
701.264	80.03
701.447	8.35
701.63	67.74
701.813	77.98
701.996	30.88
702.179	84.12
702.362	90.27
702.545	-3.94
702.728	-3.94
702.911	63.64
703.094	32.93
703.277	-8.03
703.46	49.31
703.643	-28.51
703.826	98.46
704.009	16.54
704.191	53.4
704.374	120.99
704.557	94.36
704.74	41.12
704.923	106.65
705.106	-8.03
705.288	12.45
705.471	73.88
705.654	71.84
705.837	49.31
706.019	16.54
706.202	80.03
706.385	110.75
706.567	45.21
706.75	24.73
706.932	57.5
707.115	12.45
707.298	55.45
707.48	18.59
707.663	71.84
707.845	65.69
708.028	61.6
708.21	26.78
708.393	92.32
708.575	24.73
708.758	24.73
708.94	73.88
709.123	45.21
709.305	32.93
709.487	2.21
709.67	30.88
709.852	14.49
710.034	108.7
710.217	-8.03
710.399	49.31
710.581	53.4
710.764	67.74
710.946	-34.66
711.128	51.36
711.31	-14.18
711.492	10.4
711.675	37.02
711.857	34.97
712.039	-16.23
712.221	45.21
712.403	82.08
712.585	4.25
712.767	37.02
712.949	106.65
713.131	4.25
713.314	24.73
713.496	49.31
713.678	16.54
713.86	39.07
714.041	49.31
714.223	43.16
714.405	59.55
714.587	65.69
714.769	-3.94
714.951	106.65
715.133	61.6
715.315	34.97
715.497	37.02
715.678	84.12
715.86	20.64
716.042	-5.99
716.224	75.93
716.406	71.84
716.587	110.75
716.769	16.54
716.951	127.13
717.132	-5.99
717.314	61.6
717.496	-10.08
717.677	41.12
717.859	20.64
718.041	28.83
718.222	16.54
718.404	26.78
718.585	-65.38
718.767	-8.03
718.948	57.5
719.13	0.16
719.311	135.32
719.493	106.65
719.674	32.93
719.856	45.21
720.037	55.45
720.219	73.88
720.4	16.54
720.581	-55.14
720.763	43.16
720.944	-12.13
721.125	80.03
721.307	34.97
721.488	57.5
721.669	20.64
721.85	41.12
722.032	16.54
722.213	37.02
722.394	0.16
722.575	51.36
722.756	84.12
722.938	90.27
723.119	8.35
723.3	26.78
723.481	75.93
723.662	67.74
723.843	73.88
724.024	32.93
724.205	12.45
724.386	65.69
724.567	41.12
724.748	32.93
724.929	41.12
725.11	24.73
725.291	51.36
725.472	32.93
725.653	0.16
725.834	49.31
726.015	34.97
726.196	-8.03
726.377	75.93
726.557	12.45
726.738	2.21
726.919	16.54
727.1	4.25
727.281	30.88
727.461	63.64
727.642	65.69
727.823	94.36
728.004	4.25
728.184	16.54
728.365	45.21
728.546	53.4
728.726	61.6
728.907	18.59
729.087	0.16
729.268	16.54
729.449	49.31
729.629	86.17
729.81	6.3
729.99	16.54
730.171	125.08
730.351	32.93
730.532	90.27
730.712	57.5
730.893	94.36
731.073	12.45
731.253	8.35
731.434	59.55
731.614	63.64
731.795	0.16
731.975	10.4
732.155	112.8
732.336	45.21
732.516	92.32
732.696	24.73
732.876	49.31
733.057	34.97
733.237	125.08
733.417	14.49
733.597	18.59
733.778	28.83
733.958	51.36
734.138	98.46
734.318	-8.03
734.498	65.69
734.678	16.54
734.858	55.45
735.038	135.32
735.218	61.6
735.398	80.03
735.579	10.4
735.759	47.26
735.939	65.69
736.119	57.5
736.298	24.73
736.478	-24.42
736.658	22.69
736.838	26.78
737.018	-79.71
737.198	39.07
737.378	65.69
737.558	84.12
737.738	43.16
737.917	-3.94
738.097	53.4
738.277	90.27
738.457	18.59
738.637	59.55
738.816	18.59
738.996	12.45
739.176	28.83
739.355	57.5
739.535	24.73
739.715	98.46
739.894	-22.37
740.074	-36.71
740.254	28.83
740.433	-26.47
740.613	125.08
740.792	57.5
740.972	51.36
741.151	37.02
741.331	61.6
741.51	65.69
741.69	-1.89
741.869	24.73
742.049	57.5
742.228	77.98
742.408	20.64
742.587	-22.37
742.766	84.12
742.946	16.54
743.125	22.69
743.305	22.69
743.484	90.27
743.663	16.54
743.842	-8.03
744.022	65.69
744.201	69.79
744.38	37.02
744.56	73.88
744.739	24.73
744.918	12.45
745.097	-16.23
745.276	59.55
745.455	2.21
745.635	-22.37
745.814	8.35
745.993	16.54
746.172	8.35
746.351	26.78
746.53	73.88
746.709	16.54
746.888	67.74
747.067	41.12
747.246	106.65
747.425	-3.94
747.604	-12.13
747.783	41.12
747.962	41.12
748.141	41.12
748.32	37.02
748.499	67.74
748.677	26.78
748.856	-12.13
749.035	77.98
749.214	20.64
749.393	77.98
749.572	131.23
749.75	16.54
749.929	16.54
750.108	65.69
750.287	-8.03
750.465	65.69
750.644	-16.23
750.823	-22.37
751.001	28.83
751.18	14.49
751.359	59.55
751.537	-20.32
751.716	30.88
751.894	49.31
752.073	-8.03
752.251	41.12
752.43	10.4
752.609	61.6
752.787	114.84
752.966	-3.94
753.144	24.73
753.322	94.36
753.501	30.88
753.679	57.5
753.858	57.5
754.036	-3.94
754.215	73.88
754.393	22.69
754.571	24.73
754.75	92.32
754.928	16.54
755.106	34.97
755.284	28.83
755.463	69.79
755.641	-16.23
755.819	32.93
755.997	16.54
756.176	2.21
756.354	57.5
756.532	100.51
756.71	90.27
756.888	51.36
757.066	18.59
757.245	65.69
757.423	43.16
757.601	24.73
757.779	0.16
757.957	45.21
758.135	24.73
758.313	-16.23
758.491	61.6
758.669	65.69
758.847	41.12
759.025	94.36
759.203	73.88
759.381	98.46
759.559	51.36
759.737	32.93
759.915	16.54
760.092	43.16
760.27	69.79
760.448	-18.27
760.626	32.93
760.804	-40.8
760.981	20.64
761.159	2.21
761.337	39.07
761.515	16.54
761.692	-38.75
761.87	125.08
762.048	16.54
762.226	88.22
762.403	127.13
762.581	82.08
762.759	-1.89
762.936	-34.66
763.114	53.4
763.291	57.5
763.469	2.21
763.647	-8.03
763.824	10.4
764.002	0.16
764.179	-3.94
764.357	32.93
764.534	-20.32
764.712	22.69
764.889	77.98
765.066	61.6
765.244	16.54
765.421	53.4
765.599	37.02
765.776	61.6
765.953	10.4
766.131	45.21
766.308	28.83
766.485	-16.23
766.663	67.74
766.84	47.26
767.017	26.78
767.194	57.5
767.372	102.56
767.549	28.83
767.726	16.54
767.903	45.21
768.081	37.02
768.258	4.25
768.435	65.69
768.612	75.93
768.789	51.36
768.966	-59.23
769.143	116.89
769.32	24.73
769.497	-20.32
769.674	24.73
769.851	92.32
770.028	71.84
770.205	57.5
770.382	90.27
770.559	12.45
770.736	69.79
770.913	8.35
771.09	45.21
771.267	41.12
771.444	51.36
771.621	-16.23
771.798	34.97
771.975	73.88
772.151	-3.94
772.328	102.56
772.505	45.21
772.682	-3.94
772.859	47.26
773.035	73.88
773.212	14.49
773.389	63.64
773.565	61.6
773.742	39.07
773.919	90.27
774.096	69.79
774.272	32.93
774.449	34.97
774.625	98.46
774.802	32.93
774.979	24.73
775.155	34.97
775.332	12.45
775.508	71.84
775.685	45.21
775.861	-38.75
776.038	106.65
776.214	57.5
776.391	67.74
776.567	24.73
776.744	41.12
776.92	-8.03
777.096	-22.37
777.273	49.31
777.449	82.08
777.626	102.56
777.802	0.16
777.978	-24.42
778.155	18.59
778.331	0.16
778.507	57.5
778.683	84.12
778.86	16.54
779.036	20.64
779.212	-32.61
779.388	10.4
779.565	28.83
779.741	61.6
779.917	139.42
780.093	20.64
780.269	32.93
780.445	69.79
780.621	47.26
780.797	-8.03
780.974	49.31
781.15	90.27
781.326	49.31
781.502	26.78
781.678	49.31
781.854	24.73
782.03	59.55
782.206	26.78
782.382	-30.56
782.558	88.22
782.733	65.69
782.909	43.16
783.085	59.55
783.261	41.12
783.437	77.98
783.613	24.73
783.789	24.73
783.965	86.17
784.14	32.93
784.316	65.69
784.492	51.36
784.668	22.69
784.843	49.31
785.019	59.55
785.195	16.54
785.371	18.59
785.546	45.21
785.722	86.17
785.898	100.51
786.073	28.83
786.249	34.97
786.424	-12.13
786.6	59.55
786.776	8.35
786.951	116.89
787.127	-14.18
787.302	45.21
787.478	24.73
787.653	53.4
787.829	2.21
788.004	-24.42
788.18	28.83
788.355	65.69
788.531	8.35
788.706	8.35
788.881	69.79
789.057	24.73
789.232	45.21
789.408	45.21
789.583	49.31
789.758	0.16
789.934	49.31
790.109	32.93
790.284	102.56
790.459	24.73
790.635	-14.18
790.81	116.89
790.985	65.69
791.16	61.6
791.336	82.08
791.511	24.73
791.686	34.97
791.861	57.5
792.036	-3.94
792.211	-53.09
792.387	24.73
792.562	141.47
792.737	37.02
792.912	100.51
793.087	45.21
793.262	0.16
793.437	73.88
793.612	18.59
793.787	32.93
793.962	82.08
794.137	41.12
794.312	82.08
794.487	-38.75
794.662	114.84
794.837	-38.75
795.011	77.98
795.186	16.54
795.361	75.93
795.536	24.73
795.711	20.64
795.886	49.31
796.06	37.02
796.235	45.21
796.41	6.3
796.585	47.26
796.76	-5.99
796.934	61.6
797.109	49.31
797.284	41.12
797.458	61.6
797.633	65.69
797.808	100.51
797.982	51.36
798.157	26.78
798.332	10.4
798.506	16.54
798.681	-20.32
798.855	49.31
799.03	49.31
799.204	49.31
799.379	37.02
799.553	73.88
799.728	-5.99
799.902	-12.13
800.077	30.88
800.251	65.69
800.426	34.97
800.6	41.12
800.775	18.59
800.949	28.83
801.123	-8.03
801.298	0.16
801.472	84.12
801.647	75.93
801.821	24.73
801.995	86.17
802.169	59.55
802.344	28.83
802.518	71.84
802.692	-40.8
802.867	84.12
803.041	104.6
803.215	47.26
803.389	10.4
803.563	8.35
803.737	151.71
803.912	41.12
804.086	55.45
804.26	57.5
804.434	65.69
804.608	61.6
804.782	2.21
804.956	57.5
805.13	-8.03
805.304	-16.23
805.478	41.12
805.652	75.93
805.826	63.64
806	4.25
806.174	59.55
806.348	43.16
806.522	65.69
806.696	49.31
806.87	80.03
807.044	82.08
807.218	80.03
807.392	12.45
807.566	84.12
807.739	37.02
807.913	61.6
808.087	59.55
808.261	2.21
808.435	65.69
808.608	57.5
808.782	104.6
808.956	41.12
809.13	77.98
809.303	45.21
809.477	4.25
809.651	57.5
809.824	24.73
809.998	16.54
810.172	18.59
810.345	100.51
810.519	37.02
810.692	0.16
810.866	88.22
811.04	53.4
811.213	34.97
811.387	49.31
811.56	24.73
811.734	-24.42
811.907	16.54
812.081	57.5
812.254	24.73
812.428	-5.99
812.601	4.25
812.774	82.08
812.948	4.25
813.121	-14.18
813.295	2.21
813.468	90.27
813.641	51.36
813.815	-1.89
813.988	51.36
814.161	98.46
814.335	90.27
814.508	55.45
814.681	-12.13
814.854	106.65
815.028	53.4
815.201	41.12
815.374	12.45
815.547	-16.23
815.72	32.93
815.894	24.73
816.067	32.93
816.24	84.12
816.413	34.97
816.586	53.4
816.759	69.79
816.932	53.4
817.105	51.36
817.278	41.12
817.452	18.59
817.625	43.16
817.798	59.55
817.971	98.46
818.144	43.16
818.317	-8.03
818.49	51.36
818.662	49.31
818.835	69.79
819.008	90.27
819.181	73.88
819.354	65.69
819.527	43.16
819.7	139.42
819.873	8.35
820.046	51.36
820.218	24.73
820.391	65.69
820.564	28.83
820.737	43.16
820.909	-40.8
821.082	45.21
821.255	82.08
821.428	84.12
821.6	16.54
821.773	22.69
821.946	4.25
822.118	65.69
822.291	49.31
822.464	118.94
822.636	20.64
822.809	0.16
822.982	77.98
823.154	61.6
823.327	-26.47
823.499	139.42
823.672	53.4
823.844	18.59
824.017	34.97
824.189	16.54
824.362	28.83
824.534	57.5
824.707	75.93
824.879	131.23
825.052	108.7
825.224	8.35
825.396	41.12
825.569	67.74
825.741	16.54
825.914	55.45
826.086	4.25
826.258	45.21
826.431	49.31
826.603	84.12
826.775	6.3
826.947	45.21
827.12	61.6
827.292	57.5
827.464	12.45
827.636	63.64
827.809	37.02
827.981	82.08
828.153	-30.56
828.325	47.26
828.497	57.5
828.669	24.73
828.842	94.36
829.014	-24.42
829.186	0.16
829.358	41.12
829.53	37.02
829.702	59.55
829.874	-20.32
830.046	8.35
830.218	51.36
830.39	73.88
830.562	4.25
830.734	49.31
830.906	77.98
831.078	73.88
831.25	41.12
831.422	30.88
831.594	59.55
831.766	65.69
831.937	-40.8
832.109	-65.38
832.281	49.31
832.453	-8.03
832.625	49.31
832.797	96.41
832.968	2.21
833.14	86.17
833.312	41.12
833.484	65.69
833.655	14.49
833.827	-24.42
833.999	32.93
834.171	73.88
834.342	51.36
834.514	67.74
834.686	51.36
834.857	69.79
835.029	16.54
835.2	43.16
835.372	69.79
835.544	53.4
835.715	24.73
835.887	51.36
836.058	24.73
836.23	77.98
836.401	67.74
836.573	110.75
836.744	82.08
836.916	0.16
837.087	67.74
837.259	-38.75
837.43	10.4
837.602	16.54
837.773	-38.75
837.945	14.49
838.116	-3.94
838.287	131.23
838.459	18.59
838.63	73.88
838.801	-12.13
838.973	12.45
839.144	-16.23
839.315	110.75
839.487	28.83
839.658	49.31
839.829	47.26
840	116.89
840.172	-16.23
840.343	18.59
840.514	57.5
840.685	2.21
840.856	47.26
841.027	51.36
841.199	57.5
841.37	45.21
841.541	49.31
841.712	-8.03
841.883	57.5
842.054	102.56
842.225	37.02
842.396	6.3
842.567	18.59
842.738	98.46
842.909	24.73
843.08	127.13
843.251	28.83
843.422	41.12
843.593	-16.23
843.764	41.12
843.935	37.02
844.106	20.64
844.277	53.4
844.448	26.78
844.619	49.31
844.79	123.04
844.96	82.08
845.131	73.88
845.302	-12.13
845.473	-30.56
845.644	75.93
845.814	98.46
845.985	82.08
846.156	82.08
846.327	37.02
846.497	8.35
846.668	49.31
846.839	49.31
847.01	63.64
847.18	71.84
847.351	34.97
847.522	8.35
847.692	88.22
847.863	32.93
848.033	2.21
848.204	-10.08
848.375	49.31
848.545	61.6
848.716	0.16
848.886	49.31
849.057	41.12
849.227	69.79
849.398	43.16
849.568	-3.94
849.739	57.5
849.909	49.31
850.08	28.83
850.25	41.12
850.421	16.54
850.591	94.36
850.761	-16.23
850.932	45.21
851.102	26.78
851.272	84.12
851.443	14.49
851.613	24.73
851.783	0.16
851.954	65.69
852.124	43.16
852.294	-8.03
852.465	65.69
852.635	-18.27
852.805	10.4
852.975	8.35
853.145	45.21
853.316	53.4
853.486	47.26
853.656	4.25
853.826	-8.03
853.996	110.75
854.166	49.31
854.337	65.69
854.507	-3.94
854.677	92.32
854.847	98.46
855.017	43.16
855.187	-16.23
855.357	26.78
855.527	55.45
855.697	34.97
855.867	26.78
856.037	77.98
856.207	26.78
856.377	16.54
856.547	61.6
856.717	69.79
856.887	90.27
857.057	61.6
857.227	8.35
857.397	28.83
857.566	69.79
857.736	41.12
857.906	34.97
858.076	20.64
858.246	88.22
858.416	32.93
858.585	65.69
858.755	-32.61
858.925	43.16
859.095	32.93
859.264	-57.19
859.434	108.7
859.604	-14.18
859.774	20.64
859.943	10.4
860.113	41.12
860.283	59.55
860.452	69.79
860.622	75.93
860.791	24.73
860.961	94.36
861.131	98.46
861.3	24.73
861.47	82.08
861.639	-14.18
861.809	67.74
861.978	43.16
862.148	-51.04
862.318	49.31
862.487	49.31
862.657	24.73
862.826	51.36
862.995	14.49
863.165	102.56
863.334	61.6
863.504	67.74
863.673	10.4
863.843	10.4
864.012	75.93
864.181	-3.94
864.351	30.88
864.52	18.59
864.689	116.89
864.859	-24.42
865.028	92.32
865.197	57.5
865.366	32.93
865.536	41.12
865.705	-36.71
865.874	4.25
866.043	86.17
866.213	-5.99
866.382	34.97
866.551	24.73
866.72	92.32
866.889	49.31
867.059	98.46
867.228	-3.94
867.397	20.64
867.566	37.02
867.735	53.4
867.904	86.17
868.073	57.5
868.242	4.25
868.411	69.79
868.58	24.73
868.749	26.78
868.918	-32.61
869.087	-14.18
869.256	92.32
869.425	49.31
869.594	49.31
869.763	24.73
869.932	16.54
870.101	14.49
870.27	-12.13
870.439	16.54
870.608	39.07
870.777	94.36
870.945	49.31
871.114	8.35
871.283	84.12
871.452	61.6
871.621	26.78
871.789	98.46
871.958	30.88
872.127	18.59
872.296	28.83
872.464	65.69
872.633	8.35
872.802	24.73
872.971	55.45
873.139	37.02
873.308	8.35
873.477	28.83
873.645	61.6
873.814	73.88
873.983	55.45
874.151	49.31
874.32	106.65
874.488	34.97
874.657	67.74
874.826	22.69
874.994	39.07
875.163	88.22
875.331	34.97
875.5	32.93
875.668	0.16
875.837	61.6
876.005	55.45
876.174	88.22
876.342	71.84
876.51	16.54
876.679	49.31
876.847	32.93
877.016	67.74
877.184	57.5
877.352	8.35
877.521	-24.42
877.689	55.45
877.857	-16.23
878.026	98.46
878.194	-3.94
878.362	16.54
878.531	73.88
878.699	22.69
878.867	16.54
879.036	-24.42
879.204	45.21
879.372	16.54
879.54	0.16
879.708	45.21
879.877	47.26
880.045	92.32
880.213	-46.95
880.381	94.36
880.549	108.7
880.717	69.79
880.885	86.17
881.054	28.83
881.222	28.83
881.39	6.3
881.558	32.93
881.726	57.5
881.894	94.36
882.062	69.79
882.23	51.36
882.398	-14.18
882.566	100.51
882.734	34.97
882.902	20.64
883.07	-12.13
883.238	37.02
883.406	43.16
883.574	-14.18
883.741	-16.23
883.909	120.99
884.077	69.79
884.245	-48.99
884.413	24.73
884.581	26.78
884.749	8.35
884.916	16.54
885.084	24.73
885.252	24.73
885.42	75.93
885.587	45.21
885.755	108.7
885.923	100.51
886.091	14.49
886.258	26.78
886.426	90.27
886.594	-12.13
886.761	75.93
886.929	90.27
887.097	4.25
887.264	18.59
887.432	86.17
887.6	82.08
887.767	-32.61
887.935	8.35
888.102	90.27
888.27	65.69
888.438	6.3
888.605	8.35
888.773	49.31
888.94	-12.13
889.108	12.45
889.275	20.64
889.443	41.12
889.61	37.02
889.778	45.21
889.945	14.49
890.112	34.97
890.28	-22.37
890.447	-53.09
890.615	-28.51
890.782	123.04
890.949	49.31
891.117	20.64
891.284	-20.32
891.452	-18.27
891.619	8.35
891.786	10.4
891.953	53.4
892.121	75.93
892.288	18.59
892.455	-1.89
892.623	34.97
892.79	-20.32
892.957	-12.13
893.124	34.97
893.291	0.16
893.459	45.21
893.626	-5.99
893.793	32.93
893.96	14.49
894.127	71.84
894.294	12.45
894.461	55.45
894.629	-18.27
894.796	24.73
894.963	47.26
895.13	-36.71
895.297	-24.42
895.464	28.83
895.631	-28.51
895.798	16.54
895.965	151.71
896.132	65.69
896.299	57.5
896.466	0.16
896.633	20.64
896.8	0.16
896.967	10.4
897.134	49.31
897.301	41.12
897.467	53.4
897.634	37.02
897.801	77.98
897.968	-24.42
898.135	77.98
898.302	41.12
898.469	41.12
898.635	82.08
898.802	75.93
898.969	90.27
899.136	71.84
899.303	73.88
